# E (eV)  dos(E)    pdos(E)
 -5.000  0.000E+00  0.000E+00
 -4.990  0.000E+00  0.000E+00
 -4.980  0.000E+00  0.000E+00
 -4.970  0.000E+00  0.000E+00
 -4.960  0.000E+00  0.000E+00
 -4.950  0.000E+00  0.000E+00
 -4.940  0.000E+00  0.000E+00
 -4.930  0.000E+00  0.000E+00
 -4.920  0.000E+00  0.000E+00
 -4.910  0.000E+00  0.000E+00
 -4.900  0.000E+00  0.000E+00
 -4.890  0.000E+00  0.000E+00
 -4.880  0.000E+00  0.000E+00
 -4.870  0.000E+00  0.000E+00
 -4.860  0.000E+00  0.000E+00
 -4.850  0.000E+00  0.000E+00
 -4.840  0.000E+00  0.000E+00
 -4.830  0.000E+00  0.000E+00
 -4.820  0.000E+00  0.000E+00
 -4.810  0.000E+00  0.000E+00
 -4.800  0.000E+00  0.000E+00
 -4.790  0.000E+00  0.000E+00
 -4.780  0.000E+00  0.000E+00
 -4.770  0.000E+00  0.000E+00
 -4.760  0.000E+00  0.000E+00
 -4.750  0.000E+00  0.000E+00
 -4.740  0.000E+00  0.000E+00
 -4.730  0.000E+00  0.000E+00
 -4.720  0.000E+00  0.000E+00
 -4.710  0.000E+00  0.000E+00
 -4.700  0.000E+00  0.000E+00
 -4.690  0.000E+00  0.000E+00
 -4.680  0.000E+00  0.000E+00
 -4.670  0.000E+00  0.000E+00
 -4.660  0.000E+00  0.000E+00
 -4.650  0.000E+00  0.000E+00
 -4.640  0.000E+00  0.000E+00
 -4.630  0.000E+00  0.000E+00
 -4.620  0.000E+00  0.000E+00
 -4.610  0.000E+00  0.000E+00
 -4.600  0.000E+00  0.000E+00
 -4.590  0.000E+00  0.000E+00
 -4.580  0.000E+00  0.000E+00
 -4.570  0.000E+00  0.000E+00
 -4.560  0.000E+00  0.000E+00
 -4.550  0.000E+00  0.000E+00
 -4.540  0.000E+00  0.000E+00
 -4.530  0.000E+00  0.000E+00
 -4.520  0.000E+00  0.000E+00
 -4.510  0.000E+00  0.000E+00
 -4.500  0.000E+00  0.000E+00
 -4.490  0.000E+00  0.000E+00
 -4.480  0.000E+00  0.000E+00
 -4.470  0.000E+00  0.000E+00
 -4.460  0.000E+00  0.000E+00
 -4.450  0.000E+00  0.000E+00
 -4.440  0.000E+00  0.000E+00
 -4.430  0.000E+00  0.000E+00
 -4.420  0.000E+00  0.000E+00
 -4.410  0.000E+00  0.000E+00
 -4.400  0.000E+00  0.000E+00
 -4.390  0.000E+00  0.000E+00
 -4.380  0.000E+00  0.000E+00
 -4.370  0.000E+00  0.000E+00
 -4.360  0.000E+00  0.000E+00
 -4.350  0.000E+00  0.000E+00
 -4.340  0.000E+00  0.000E+00
 -4.330  0.000E+00  0.000E+00
 -4.320  0.000E+00  0.000E+00
 -4.310  0.000E+00  0.000E+00
 -4.300  0.000E+00  0.000E+00
 -4.290  0.000E+00  0.000E+00
 -4.280  0.000E+00  0.000E+00
 -4.270  0.000E+00  0.000E+00
 -4.260  0.000E+00  0.000E+00
 -4.250  0.000E+00  0.000E+00
 -4.240  0.000E+00  0.000E+00
 -4.230  0.000E+00  0.000E+00
 -4.220  0.000E+00  0.000E+00
 -4.210  0.000E+00  0.000E+00
 -4.200  0.000E+00  0.000E+00
 -4.190  0.000E+00  0.000E+00
 -4.180  0.000E+00  0.000E+00
 -4.170  0.000E+00  0.000E+00
 -4.160  0.000E+00  0.000E+00
 -4.150  0.000E+00  0.000E+00
 -4.140  0.000E+00  0.000E+00
 -4.130  0.000E+00  0.000E+00
 -4.120  0.000E+00  0.000E+00
 -4.110  0.000E+00  0.000E+00
 -4.100  0.000E+00  0.000E+00
 -4.090  0.000E+00  0.000E+00
 -4.080  0.000E+00  0.000E+00
 -4.070  0.000E+00  0.000E+00
 -4.060  0.000E+00  0.000E+00
 -4.050  0.000E+00  0.000E+00
 -4.040  0.000E+00  0.000E+00
 -4.030  0.000E+00  0.000E+00
 -4.020  0.000E+00  0.000E+00
 -4.010  0.000E+00  0.000E+00
 -4.000  0.000E+00  0.000E+00
 -3.990  0.000E+00  0.000E+00
 -3.980  0.000E+00  0.000E+00
 -3.970  0.000E+00  0.000E+00
 -3.960  0.000E+00  0.000E+00
 -3.950  0.000E+00  0.000E+00
 -3.940  0.000E+00  0.000E+00
 -3.930  0.000E+00  0.000E+00
 -3.920  0.000E+00  0.000E+00
 -3.910  0.139E-14  0.139E-14
 -3.900  0.320E-14  0.319E-14
 -3.890  0.726E-14  0.725E-14
 -3.880  0.175E-13  0.175E-13
 -3.870  0.389E-13  0.389E-13
 -3.860  0.857E-13  0.857E-13
 -3.850  0.188E-12  0.188E-12
 -3.840  0.405E-12  0.404E-12
 -3.830  0.863E-12  0.862E-12
 -3.820  0.182E-11  0.182E-11
 -3.810  0.380E-11  0.379E-11
 -3.800  0.784E-11  0.783E-11
 -3.790  0.160E-10  0.160E-10
 -3.780  0.323E-10  0.323E-10
 -3.770  0.646E-10  0.645E-10
 -3.760  0.128E-09  0.128E-09
 -3.750  0.250E-09  0.249E-09
 -3.740  0.483E-09  0.482E-09
 -3.730  0.923E-09  0.922E-09
 -3.720  0.175E-08  0.175E-08
 -3.710  0.327E-08  0.327E-08
 -3.700  0.606E-08  0.605E-08
 -3.690  0.111E-07  0.111E-07
 -3.680  0.201E-07  0.201E-07
 -3.670  0.361E-07  0.361E-07
 -3.660  0.640E-07  0.640E-07
 -3.650  0.112E-06  0.112E-06
 -3.640  0.195E-06  0.195E-06
 -3.630  0.335E-06  0.335E-06
 -3.620  0.569E-06  0.568E-06
 -3.610  0.956E-06  0.955E-06
 -3.600  0.159E-05  0.159E-05
 -3.590  0.261E-05  0.261E-05
 -3.580  0.425E-05  0.425E-05
 -3.570  0.685E-05  0.684E-05
 -3.560  0.109E-04  0.109E-04
 -3.550  0.172E-04  0.172E-04
 -3.540  0.268E-04  0.267E-04
 -3.530  0.413E-04  0.412E-04
 -3.520  0.630E-04  0.629E-04
 -3.510  0.950E-04  0.949E-04
 -3.500  0.142E-03  0.142E-03
 -3.490  0.210E-03  0.209E-03
 -3.480  0.306E-03  0.306E-03
 -3.470  0.443E-03  0.443E-03
 -3.460  0.634E-03  0.633E-03
 -3.450  0.897E-03  0.896E-03
 -3.440  0.126E-02  0.126E-02
 -3.430  0.174E-02  0.174E-02
 -3.420  0.239E-02  0.239E-02
 -3.410  0.324E-02  0.324E-02
 -3.400  0.435E-02  0.435E-02
 -3.390  0.578E-02  0.577E-02
 -3.380  0.760E-02  0.759E-02
 -3.370  0.989E-02  0.988E-02
 -3.360  0.127E-01  0.127E-01
 -3.350  0.162E-01  0.162E-01
 -3.340  0.205E-01  0.204E-01
 -3.330  0.255E-01  0.255E-01
 -3.320  0.315E-01  0.315E-01
 -3.310  0.386E-01  0.385E-01
 -3.300  0.467E-01  0.466E-01
 -3.290  0.560E-01  0.559E-01
 -3.280  0.664E-01  0.663E-01
 -3.270  0.780E-01  0.779E-01
 -3.260  0.908E-01  0.907E-01
 -3.250  0.105E+00  0.104E+00
 -3.240  0.119E+00  0.119E+00
 -3.230  0.135E+00  0.135E+00
 -3.220  0.151E+00  0.151E+00
 -3.210  0.168E+00  0.167E+00
 -3.200  0.184E+00  0.184E+00
 -3.190  0.201E+00  0.201E+00
 -3.180  0.217E+00  0.217E+00
 -3.170  0.233E+00  0.232E+00
 -3.160  0.247E+00  0.247E+00
 -3.150  0.261E+00  0.261E+00
 -3.140  0.273E+00  0.273E+00
 -3.130  0.284E+00  0.284E+00
 -3.120  0.293E+00  0.293E+00
 -3.110  0.301E+00  0.301E+00
 -3.100  0.307E+00  0.307E+00
 -3.090  0.311E+00  0.311E+00
 -3.080  0.314E+00  0.314E+00
 -3.070  0.316E+00  0.316E+00
 -3.060  0.316E+00  0.316E+00
 -3.050  0.315E+00  0.315E+00
 -3.040  0.314E+00  0.314E+00
 -3.030  0.312E+00  0.311E+00
 -3.020  0.309E+00  0.308E+00
 -3.010  0.306E+00  0.305E+00
 -3.000  0.302E+00  0.302E+00
 -2.990  0.299E+00  0.298E+00
 -2.980  0.295E+00  0.295E+00
 -2.970  0.292E+00  0.292E+00
 -2.960  0.289E+00  0.288E+00
 -2.950  0.286E+00  0.286E+00
 -2.940  0.283E+00  0.283E+00
 -2.930  0.281E+00  0.280E+00
 -2.920  0.278E+00  0.278E+00
 -2.910  0.277E+00  0.276E+00
 -2.900  0.275E+00  0.274E+00
 -2.890  0.273E+00  0.273E+00
 -2.880  0.272E+00  0.272E+00
 -2.870  0.271E+00  0.270E+00
 -2.860  0.270E+00  0.269E+00
 -2.850  0.269E+00  0.269E+00
 -2.840  0.268E+00  0.268E+00
 -2.830  0.268E+00  0.267E+00
 -2.820  0.267E+00  0.267E+00
 -2.810  0.267E+00  0.267E+00
 -2.800  0.267E+00  0.267E+00
 -2.790  0.267E+00  0.267E+00
 -2.780  0.268E+00  0.267E+00
 -2.770  0.269E+00  0.268E+00
 -2.760  0.270E+00  0.270E+00
 -2.750  0.272E+00  0.272E+00
 -2.740  0.276E+00  0.275E+00
 -2.730  0.280E+00  0.280E+00
 -2.720  0.287E+00  0.286E+00
 -2.710  0.295E+00  0.294E+00
 -2.700  0.306E+00  0.305E+00
 -2.690  0.320E+00  0.319E+00
 -2.680  0.337E+00  0.337E+00
 -2.670  0.360E+00  0.359E+00
 -2.660  0.387E+00  0.387E+00
 -2.650  0.421E+00  0.420E+00
 -2.640  0.461E+00  0.461E+00
 -2.630  0.509E+00  0.509E+00
 -2.620  0.566E+00  0.565E+00
 -2.610  0.631E+00  0.630E+00
 -2.600  0.705E+00  0.705E+00
 -2.590  0.789E+00  0.788E+00
 -2.580  0.882E+00  0.881E+00
 -2.570  0.983E+00  0.982E+00
 -2.560  0.109E+01  0.109E+01
 -2.550  0.121E+01  0.121E+01
 -2.540  0.133E+01  0.133E+01
 -2.530  0.145E+01  0.145E+01
 -2.520  0.157E+01  0.157E+01
 -2.510  0.169E+01  0.169E+01
 -2.500  0.181E+01  0.181E+01
 -2.490  0.191E+01  0.191E+01
 -2.480  0.201E+01  0.201E+01
 -2.470  0.210E+01  0.209E+01
 -2.460  0.217E+01  0.217E+01
 -2.450  0.222E+01  0.222E+01
 -2.440  0.226E+01  0.226E+01
 -2.430  0.228E+01  0.228E+01
 -2.420  0.229E+01  0.229E+01
 -2.410  0.228E+01  0.228E+01
 -2.400  0.226E+01  0.225E+01
 -2.390  0.222E+01  0.222E+01
 -2.380  0.218E+01  0.218E+01
 -2.370  0.213E+01  0.213E+01
 -2.360  0.208E+01  0.207E+01
 -2.350  0.202E+01  0.202E+01
 -2.340  0.197E+01  0.197E+01
 -2.330  0.193E+01  0.193E+01
 -2.320  0.189E+01  0.189E+01
 -2.310  0.186E+01  0.186E+01
 -2.300  0.185E+01  0.184E+01
 -2.290  0.184E+01  0.184E+01
 -2.280  0.184E+01  0.184E+01
 -2.270  0.186E+01  0.186E+01
 -2.260  0.188E+01  0.188E+01
 -2.250  0.192E+01  0.192E+01
 -2.240  0.196E+01  0.196E+01
 -2.230  0.201E+01  0.201E+01
 -2.220  0.206E+01  0.206E+01
 -2.210  0.211E+01  0.211E+01
 -2.200  0.217E+01  0.216E+01
 -2.190  0.222E+01  0.222E+01
 -2.180  0.227E+01  0.226E+01
 -2.170  0.231E+01  0.231E+01
 -2.160  0.235E+01  0.234E+01
 -2.150  0.238E+01  0.237E+01
 -2.140  0.240E+01  0.240E+01
 -2.130  0.241E+01  0.241E+01
 -2.120  0.242E+01  0.242E+01
 -2.110  0.243E+01  0.243E+01
 -2.100  0.243E+01  0.242E+01
 -2.090  0.242E+01  0.242E+01
 -2.080  0.242E+01  0.241E+01
 -2.070  0.241E+01  0.241E+01
 -2.060  0.240E+01  0.240E+01
 -2.050  0.240E+01  0.239E+01
 -2.040  0.239E+01  0.239E+01
 -2.030  0.239E+01  0.239E+01
 -2.020  0.240E+01  0.239E+01
 -2.010  0.240E+01  0.240E+01
 -2.000  0.242E+01  0.241E+01
 -1.990  0.243E+01  0.243E+01
 -1.980  0.245E+01  0.245E+01
 -1.970  0.247E+01  0.246E+01
 -1.960  0.248E+01  0.248E+01
 -1.950  0.250E+01  0.250E+01
 -1.940  0.252E+01  0.251E+01
 -1.930  0.252E+01  0.252E+01
 -1.920  0.253E+01  0.253E+01
 -1.910  0.252E+01  0.252E+01
 -1.900  0.251E+01  0.251E+01
 -1.890  0.249E+01  0.249E+01
 -1.880  0.246E+01  0.246E+01
 -1.870  0.242E+01  0.242E+01
 -1.860  0.237E+01  0.236E+01
 -1.850  0.230E+01  0.230E+01
 -1.840  0.223E+01  0.223E+01
 -1.830  0.215E+01  0.215E+01
 -1.820  0.206E+01  0.205E+01
 -1.810  0.196E+01  0.196E+01
 -1.800  0.185E+01  0.185E+01
 -1.790  0.174E+01  0.174E+01
 -1.780  0.162E+01  0.162E+01
 -1.770  0.150E+01  0.149E+01
 -1.760  0.137E+01  0.137E+01
 -1.750  0.124E+01  0.124E+01
 -1.740  0.111E+01  0.111E+01
 -1.730  0.983E+00  0.982E+00
 -1.720  0.855E+00  0.854E+00
 -1.710  0.729E+00  0.728E+00
 -1.700  0.608E+00  0.607E+00
 -1.690  0.492E+00  0.491E+00
 -1.680  0.382E+00  0.382E+00
 -1.670  0.280E+00  0.280E+00
 -1.660  0.187E+00  0.187E+00
 -1.650  0.104E+00  0.104E+00
 -1.640  0.311E-01  0.310E-01
 -1.630 -0.313E-01 -0.312E-01
 -1.620 -0.828E-01 -0.828E-01
 -1.610 -0.124E+00 -0.124E+00
 -1.600 -0.155E+00 -0.155E+00
 -1.590 -0.176E+00 -0.176E+00
 -1.580 -0.189E+00 -0.189E+00
 -1.570 -0.194E+00 -0.194E+00
 -1.560 -0.193E+00 -0.193E+00
 -1.550 -0.187E+00 -0.187E+00
 -1.540 -0.177E+00 -0.177E+00
 -1.530 -0.164E+00 -0.164E+00
 -1.520 -0.149E+00 -0.149E+00
 -1.510 -0.133E+00 -0.133E+00
 -1.500 -0.117E+00 -0.117E+00
 -1.490 -0.101E+00 -0.101E+00
 -1.480 -0.861E-01 -0.860E-01
 -1.470 -0.723E-01 -0.723E-01
 -1.460 -0.599E-01 -0.599E-01
 -1.450 -0.490E-01 -0.489E-01
 -1.440 -0.395E-01 -0.394E-01
 -1.430 -0.314E-01 -0.314E-01
 -1.420 -0.247E-01 -0.247E-01
 -1.410 -0.192E-01 -0.191E-01
 -1.400 -0.147E-01 -0.147E-01
 -1.390 -0.111E-01 -0.111E-01
 -1.380 -0.832E-02 -0.831E-02
 -1.370 -0.614E-02 -0.614E-02
 -1.360 -0.449E-02 -0.448E-02
 -1.350 -0.324E-02 -0.323E-02
 -1.340 -0.231E-02 -0.231E-02
 -1.330 -0.163E-02 -0.162E-02
 -1.320 -0.113E-02 -0.113E-02
 -1.310 -0.780E-03 -0.779E-03
 -1.300 -0.531E-03 -0.530E-03
 -1.290 -0.357E-03 -0.357E-03
 -1.280 -0.238E-03 -0.237E-03
 -1.270 -0.156E-03 -0.156E-03
 -1.260 -0.102E-03 -0.101E-03
 -1.250 -0.653E-04 -0.652E-04
 -1.240 -0.415E-04 -0.415E-04
 -1.230 -0.261E-04 -0.260E-04
 -1.220 -0.162E-04 -0.162E-04
 -1.210 -0.995E-05 -0.994E-05
 -1.200 -0.604E-05 -0.604E-05
 -1.190 -0.363E-05 -0.363E-05
 -1.180 -0.216E-05 -0.216E-05
 -1.170 -0.127E-05 -0.127E-05
 -1.160 -0.735E-06 -0.735E-06
 -1.150 -0.421E-06 -0.421E-06
 -1.140 -0.239E-06 -0.238E-06
 -1.130 -0.133E-06 -0.133E-06
 -1.120 -0.725E-07 -0.724E-07
 -1.110 -0.385E-07 -0.385E-07
 -1.100 -0.193E-07 -0.193E-07
 -1.090 -0.850E-08 -0.849E-08
 -1.080  0.000E+00  0.000E+00
 -1.070  0.000E+00  0.000E+00
 -1.060  0.000E+00  0.000E+00
 -1.050  0.000E+00  0.000E+00
 -1.040  0.000E+00  0.000E+00
 -1.030  0.000E+00  0.000E+00
 -1.020  0.000E+00  0.000E+00
 -1.010  0.000E+00  0.000E+00
 -1.000  0.000E+00  0.000E+00
 -0.990  0.000E+00  0.000E+00
 -0.980  0.000E+00  0.000E+00
 -0.970  0.000E+00  0.000E+00
 -0.960  0.000E+00  0.000E+00
 -0.950  0.000E+00  0.000E+00
 -0.940  0.000E+00  0.000E+00
 -0.930  0.000E+00  0.000E+00
 -0.920  0.000E+00  0.000E+00
 -0.910  0.000E+00  0.000E+00
 -0.900  0.000E+00  0.000E+00
 -0.890  0.000E+00  0.000E+00
 -0.880  0.000E+00  0.000E+00
 -0.870  0.000E+00  0.000E+00
 -0.860  0.000E+00  0.000E+00
 -0.850  0.000E+00  0.000E+00
 -0.840  0.000E+00  0.000E+00
 -0.830  0.000E+00  0.000E+00
 -0.820  0.000E+00  0.000E+00
 -0.810  0.000E+00  0.000E+00
 -0.800  0.000E+00  0.000E+00
 -0.790  0.000E+00  0.000E+00
 -0.780  0.000E+00  0.000E+00
 -0.770  0.000E+00  0.000E+00
 -0.760  0.000E+00  0.000E+00
 -0.750  0.000E+00  0.000E+00
 -0.740  0.000E+00  0.000E+00
 -0.730  0.000E+00  0.000E+00
 -0.720  0.000E+00  0.000E+00
 -0.710  0.000E+00  0.000E+00
 -0.700  0.000E+00  0.000E+00
 -0.690  0.000E+00  0.000E+00
 -0.680  0.000E+00  0.000E+00
 -0.670  0.000E+00  0.000E+00
 -0.660  0.000E+00  0.000E+00
 -0.650  0.000E+00  0.000E+00
 -0.640  0.000E+00  0.000E+00
 -0.630  0.000E+00  0.000E+00
 -0.620  0.000E+00  0.000E+00
 -0.610  0.000E+00  0.000E+00
 -0.600  0.000E+00  0.000E+00
 -0.590  0.000E+00  0.000E+00
 -0.580  0.000E+00  0.000E+00
 -0.570  0.000E+00  0.000E+00
 -0.560  0.000E+00  0.000E+00
 -0.550  0.400E-14  0.399E-14
 -0.540  0.119E-13  0.119E-13
 -0.530  0.296E-13  0.296E-13
 -0.520  0.680E-13  0.679E-13
 -0.510  0.153E-12  0.153E-12
 -0.500  0.340E-12  0.339E-12
 -0.490  0.744E-12  0.743E-12
 -0.480  0.161E-11  0.161E-11
 -0.470  0.345E-11  0.344E-11
 -0.460  0.731E-11  0.730E-11
 -0.450  0.153E-10  0.153E-10
 -0.440  0.317E-10  0.317E-10
 -0.430  0.651E-10  0.650E-10
 -0.420  0.132E-09  0.132E-09
 -0.410  0.265E-09  0.264E-09
 -0.400  0.525E-09  0.524E-09
 -0.390  0.103E-08  0.103E-08
 -0.380  0.200E-08  0.200E-08
 -0.370  0.384E-08  0.384E-08
 -0.360  0.730E-08  0.729E-08
 -0.350  0.137E-07  0.137E-07
 -0.340  0.255E-07  0.255E-07
 -0.330  0.469E-07  0.469E-07
 -0.320  0.854E-07  0.853E-07
 -0.310  0.154E-06  0.153E-06
 -0.300  0.273E-06  0.273E-06
 -0.290  0.481E-06  0.481E-06
 -0.280  0.838E-06  0.837E-06
 -0.270  0.144E-05  0.144E-05
 -0.260  0.246E-05  0.246E-05
 -0.250  0.415E-05  0.414E-05
 -0.240  0.691E-05  0.690E-05
 -0.230  0.114E-04  0.114E-04
 -0.220  0.186E-04  0.186E-04
 -0.210  0.300E-04  0.300E-04
 -0.200  0.479E-04  0.478E-04
 -0.190  0.756E-04  0.755E-04
 -0.180  0.118E-03  0.118E-03
 -0.170  0.182E-03  0.182E-03
 -0.160  0.279E-03  0.278E-03
 -0.150  0.421E-03  0.421E-03
 -0.140  0.630E-03  0.629E-03
 -0.130  0.932E-03  0.930E-03
 -0.120  0.136E-02  0.136E-02
 -0.110  0.197E-02  0.197E-02
 -0.100  0.282E-02  0.282E-02
 -0.090  0.399E-02  0.399E-02
 -0.080  0.559E-02  0.559E-02
 -0.070  0.775E-02  0.774E-02
 -0.060  0.106E-01  0.106E-01
 -0.050  0.144E-01  0.144E-01
 -0.040  0.193E-01  0.193E-01
 -0.030  0.256E-01  0.255E-01
 -0.020  0.335E-01  0.335E-01
 -0.010  0.435E-01  0.434E-01
  0.000  0.558E-01  0.558E-01
  0.010  0.709E-01  0.708E-01
  0.020  0.891E-01  0.889E-01
  0.030  0.111E+00  0.111E+00
  0.040  0.136E+00  0.136E+00
  0.050  0.166E+00  0.165E+00
  0.060  0.199E+00  0.199E+00
  0.070  0.237E+00  0.237E+00
  0.080  0.280E+00  0.279E+00
  0.090  0.326E+00  0.326E+00
  0.100  0.377E+00  0.376E+00
  0.110  0.431E+00  0.430E+00
  0.120  0.488E+00  0.487E+00
  0.130  0.548E+00  0.547E+00
  0.140  0.609E+00  0.608E+00
  0.150  0.671E+00  0.670E+00
  0.160  0.733E+00  0.732E+00
  0.170  0.795E+00  0.794E+00
  0.180  0.857E+00  0.855E+00
  0.190  0.916E+00  0.915E+00
  0.200  0.975E+00  0.974E+00
  0.210  0.103E+01  0.103E+01
  0.220  0.109E+01  0.109E+01
  0.230  0.114E+01  0.114E+01
  0.240  0.120E+01  0.120E+01
  0.250  0.126E+01  0.126E+01
  0.260  0.132E+01  0.131E+01
  0.270  0.138E+01  0.138E+01
  0.280  0.144E+01  0.144E+01
  0.290  0.151E+01  0.151E+01
  0.300  0.158E+01  0.158E+01
  0.310  0.166E+01  0.165E+01
  0.320  0.173E+01  0.173E+01
  0.330  0.181E+01  0.181E+01
  0.340  0.189E+01  0.189E+01
  0.350  0.197E+01  0.197E+01
  0.360  0.204E+01  0.204E+01
  0.370  0.211E+01  0.211E+01
  0.380  0.217E+01  0.217E+01
  0.390  0.222E+01  0.222E+01
  0.400  0.226E+01  0.226E+01
  0.410  0.229E+01  0.228E+01
  0.420  0.230E+01  0.229E+01
  0.430  0.229E+01  0.229E+01
  0.440  0.228E+01  0.227E+01
  0.450  0.225E+01  0.224E+01
  0.460  0.221E+01  0.220E+01
  0.470  0.215E+01  0.215E+01
  0.480  0.209E+01  0.209E+01
  0.490  0.203E+01  0.202E+01
  0.500  0.196E+01  0.195E+01
  0.510  0.188E+01  0.188E+01
  0.520  0.181E+01  0.181E+01
  0.530  0.174E+01  0.174E+01
  0.540  0.168E+01  0.167E+01
  0.550  0.161E+01  0.161E+01
  0.560  0.156E+01  0.156E+01
  0.570  0.151E+01  0.151E+01
  0.580  0.146E+01  0.146E+01
  0.590  0.143E+01  0.142E+01
  0.600  0.140E+01  0.139E+01
  0.610  0.137E+01  0.137E+01
  0.620  0.135E+01  0.135E+01
  0.630  0.134E+01  0.133E+01
  0.640  0.132E+01  0.132E+01
  0.650  0.132E+01  0.132E+01
  0.660  0.131E+01  0.131E+01
  0.670  0.131E+01  0.131E+01
  0.680  0.131E+01  0.131E+01
  0.690  0.131E+01  0.131E+01
  0.700  0.132E+01  0.132E+01
  0.710  0.132E+01  0.132E+01
  0.720  0.133E+01  0.133E+01
  0.730  0.134E+01  0.134E+01
  0.740  0.135E+01  0.135E+01
  0.750  0.136E+01  0.136E+01
  0.760  0.137E+01  0.137E+01
  0.770  0.139E+01  0.138E+01
  0.780  0.140E+01  0.140E+01
  0.790  0.142E+01  0.142E+01
  0.800  0.144E+01  0.144E+01
  0.810  0.146E+01  0.146E+01
  0.820  0.149E+01  0.148E+01
  0.830  0.151E+01  0.151E+01
  0.840  0.154E+01  0.154E+01
  0.850  0.157E+01  0.157E+01
  0.860  0.160E+01  0.160E+01
  0.870  0.163E+01  0.163E+01
  0.880  0.167E+01  0.167E+01
  0.890  0.170E+01  0.170E+01
  0.900  0.174E+01  0.173E+01
  0.910  0.177E+01  0.177E+01
  0.920  0.180E+01  0.180E+01
  0.930  0.183E+01  0.183E+01
  0.940  0.186E+01  0.185E+01
  0.950  0.188E+01  0.187E+01
  0.960  0.189E+01  0.189E+01
  0.970  0.190E+01  0.189E+01
  0.980  0.189E+01  0.189E+01
  0.990  0.188E+01  0.188E+01
  1.000  0.186E+01  0.185E+01
  1.010  0.183E+01  0.182E+01
  1.020  0.178E+01  0.178E+01
  1.030  0.173E+01  0.172E+01
  1.040  0.167E+01  0.166E+01
  1.050  0.159E+01  0.159E+01
  1.060  0.151E+01  0.151E+01
  1.070  0.143E+01  0.142E+01
  1.080  0.134E+01  0.133E+01
  1.090  0.124E+01  0.124E+01
  1.100  0.115E+01  0.114E+01
  1.110  0.105E+01  0.105E+01
  1.120  0.963E+00  0.960E+00
  1.130  0.875E+00  0.873E+00
  1.140  0.793E+00  0.791E+00
  1.150  0.717E+00  0.715E+00
  1.160  0.648E+00  0.646E+00
  1.170  0.587E+00  0.585E+00
  1.180  0.533E+00  0.532E+00
  1.190  0.487E+00  0.486E+00
  1.200  0.449E+00  0.447E+00
  1.210  0.417E+00  0.416E+00
  1.220  0.391E+00  0.390E+00
  1.230  0.371E+00  0.370E+00
  1.240  0.356E+00  0.354E+00
  1.250  0.344E+00  0.343E+00
  1.260  0.336E+00  0.335E+00
  1.270  0.330E+00  0.329E+00
  1.280  0.326E+00  0.324E+00
  1.290  0.323E+00  0.322E+00
  1.300  0.321E+00  0.320E+00
  1.310  0.319E+00  0.318E+00
  1.320  0.318E+00  0.317E+00
  1.330  0.316E+00  0.315E+00
  1.340  0.315E+00  0.314E+00
  1.350  0.314E+00  0.313E+00
  1.360  0.312E+00  0.311E+00
  1.370  0.310E+00  0.309E+00
  1.380  0.308E+00  0.307E+00
  1.390  0.306E+00  0.305E+00
  1.400  0.303E+00  0.302E+00
  1.410  0.301E+00  0.300E+00
  1.420  0.298E+00  0.297E+00
  1.430  0.296E+00  0.295E+00
  1.440  0.293E+00  0.292E+00
  1.450  0.291E+00  0.290E+00
  1.460  0.288E+00  0.287E+00
  1.470  0.286E+00  0.285E+00
  1.480  0.283E+00  0.282E+00
  1.490  0.281E+00  0.280E+00
  1.500  0.279E+00  0.278E+00
  1.510  0.277E+00  0.276E+00
  1.520  0.275E+00  0.274E+00
  1.530  0.272E+00  0.272E+00
  1.540  0.271E+00  0.270E+00
  1.550  0.269E+00  0.268E+00
  1.560  0.267E+00  0.266E+00
  1.570  0.265E+00  0.264E+00
  1.580  0.263E+00  0.263E+00
  1.590  0.262E+00  0.261E+00
  1.600  0.260E+00  0.259E+00
  1.610  0.259E+00  0.258E+00
  1.620  0.257E+00  0.256E+00
  1.630  0.256E+00  0.255E+00
  1.640  0.254E+00  0.254E+00
  1.650  0.253E+00  0.252E+00
  1.660  0.252E+00  0.251E+00
  1.670  0.251E+00  0.250E+00
  1.680  0.249E+00  0.249E+00
  1.690  0.248E+00  0.248E+00
  1.700  0.247E+00  0.246E+00
  1.710  0.246E+00  0.245E+00
  1.720  0.245E+00  0.244E+00
  1.730  0.244E+00  0.244E+00
  1.740  0.243E+00  0.243E+00
  1.750  0.243E+00  0.242E+00
  1.760  0.242E+00  0.241E+00
  1.770  0.241E+00  0.240E+00
  1.780  0.240E+00  0.239E+00
  1.790  0.239E+00  0.239E+00
  1.800  0.239E+00  0.238E+00
  1.810  0.238E+00  0.237E+00
  1.820  0.237E+00  0.237E+00
  1.830  0.237E+00  0.236E+00
  1.840  0.236E+00  0.236E+00
  1.850  0.236E+00  0.235E+00
  1.860  0.235E+00  0.235E+00
  1.870  0.235E+00  0.234E+00
  1.880  0.234E+00  0.234E+00
  1.890  0.234E+00  0.233E+00
  1.900  0.234E+00  0.233E+00
  1.910  0.233E+00  0.233E+00
  1.920  0.233E+00  0.232E+00
  1.930  0.233E+00  0.232E+00
  1.940  0.232E+00  0.232E+00
  1.950  0.232E+00  0.232E+00
  1.960  0.232E+00  0.231E+00
  1.970  0.232E+00  0.231E+00
  1.980  0.232E+00  0.231E+00
  1.990  0.232E+00  0.231E+00
  2.000  0.231E+00  0.231E+00
  2.010  0.231E+00  0.231E+00
  2.020  0.231E+00  0.231E+00
  2.030  0.231E+00  0.231E+00
  2.040  0.231E+00  0.231E+00
  2.050  0.231E+00  0.231E+00
  2.060  0.231E+00  0.231E+00
  2.070  0.231E+00  0.231E+00
  2.080  0.232E+00  0.231E+00
  2.090  0.232E+00  0.231E+00
  2.100  0.232E+00  0.231E+00
  2.110  0.232E+00  0.231E+00
  2.120  0.232E+00  0.231E+00
  2.130  0.232E+00  0.232E+00
  2.140  0.233E+00  0.232E+00
  2.150  0.233E+00  0.232E+00
  2.160  0.233E+00  0.233E+00
  2.170  0.233E+00  0.233E+00
  2.180  0.234E+00  0.233E+00
  2.190  0.234E+00  0.234E+00
  2.200  0.235E+00  0.234E+00
  2.210  0.235E+00  0.234E+00
  2.220  0.235E+00  0.235E+00
  2.230  0.236E+00  0.235E+00
  2.240  0.236E+00  0.236E+00
  2.250  0.237E+00  0.236E+00
  2.260  0.237E+00  0.237E+00
  2.270  0.238E+00  0.237E+00
  2.280  0.239E+00  0.238E+00
  2.290  0.239E+00  0.239E+00
  2.300  0.240E+00  0.239E+00
  2.310  0.241E+00  0.240E+00
  2.320  0.241E+00  0.241E+00
  2.330  0.242E+00  0.241E+00
  2.340  0.243E+00  0.242E+00
  2.350  0.243E+00  0.243E+00
  2.360  0.244E+00  0.244E+00
  2.370  0.245E+00  0.244E+00
  2.380  0.245E+00  0.245E+00
  2.390  0.246E+00  0.245E+00
  2.400  0.247E+00  0.246E+00
  2.410  0.247E+00  0.246E+00
  2.420  0.247E+00  0.247E+00
  2.430  0.247E+00  0.247E+00
  2.440  0.247E+00  0.247E+00
  2.450  0.247E+00  0.246E+00
  2.460  0.246E+00  0.245E+00
  2.470  0.244E+00  0.244E+00
  2.480  0.242E+00  0.242E+00
  2.490  0.240E+00  0.239E+00
  2.500  0.237E+00  0.236E+00
  2.510  0.232E+00  0.232E+00
  2.520  0.227E+00  0.227E+00
  2.530  0.221E+00  0.221E+00
  2.540  0.214E+00  0.214E+00
  2.550  0.206E+00  0.206E+00
  2.560  0.197E+00  0.197E+00
  2.570  0.187E+00  0.186E+00
  2.580  0.176E+00  0.175E+00
  2.590  0.163E+00  0.163E+00
  2.600  0.150E+00  0.150E+00
  2.610  0.137E+00  0.137E+00
  2.620  0.123E+00  0.122E+00
  2.630  0.108E+00  0.108E+00
  2.640  0.939E-01  0.937E-01
  2.650  0.796E-01  0.794E-01
  2.660  0.656E-01  0.655E-01
  2.670  0.523E-01  0.522E-01
  2.680  0.398E-01  0.397E-01
  2.690  0.282E-01  0.282E-01
  2.700  0.178E-01  0.177E-01
  2.710  0.853E-02  0.852E-02
  2.720  0.578E-03  0.581E-03
  2.730 -0.607E-02 -0.605E-02
  2.740 -0.114E-01 -0.114E-01
  2.750 -0.155E-01 -0.155E-01
  2.760 -0.185E-01 -0.185E-01
  2.770 -0.204E-01 -0.203E-01
  2.780 -0.214E-01 -0.213E-01
  2.790 -0.216E-01 -0.215E-01
  2.800 -0.211E-01 -0.211E-01
  2.810 -0.201E-01 -0.201E-01
  2.820 -0.188E-01 -0.187E-01
  2.830 -0.172E-01 -0.172E-01
  2.840 -0.155E-01 -0.154E-01
  2.850 -0.137E-01 -0.136E-01
  2.860 -0.119E-01 -0.119E-01
  2.870 -0.102E-01 -0.102E-01
  2.880 -0.863E-02 -0.861E-02
  2.890 -0.719E-02 -0.718E-02
  2.900 -0.592E-02 -0.591E-02
  2.910 -0.481E-02 -0.480E-02
  2.920 -0.385E-02 -0.385E-02
  2.930 -0.305E-02 -0.305E-02
  2.940 -0.239E-02 -0.238E-02
  2.950 -0.185E-02 -0.184E-02
  2.960 -0.141E-02 -0.141E-02
  2.970 -0.106E-02 -0.106E-02
  2.980 -0.793E-03 -0.791E-03
  2.990 -0.584E-03 -0.583E-03
  3.000 -0.426E-03 -0.425E-03
  3.010 -0.307E-03 -0.306E-03
  3.020 -0.218E-03 -0.218E-03
  3.030 -0.154E-03 -0.153E-03
  3.040 -0.107E-03 -0.107E-03
  3.050 -0.737E-04 -0.735E-04
  3.060 -0.501E-04 -0.500E-04
  3.070 -0.337E-04 -0.337E-04
  3.080 -0.225E-04 -0.224E-04
  3.090 -0.148E-04 -0.148E-04
  3.100 -0.962E-05 -0.960E-05
  3.110 -0.619E-05 -0.618E-05
  3.120 -0.394E-05 -0.393E-05
  3.130 -0.248E-05 -0.248E-05
  3.140 -0.155E-05 -0.154E-05
  3.150 -0.951E-06 -0.949E-06
  3.160 -0.579E-06 -0.578E-06
  3.170 -0.349E-06 -0.348E-06
  3.180 -0.208E-06 -0.207E-06
  3.190 -0.122E-06 -0.122E-06
  3.200 -0.713E-07 -0.711E-07
  3.210 -0.408E-07 -0.407E-07
  3.220 -0.233E-07 -0.232E-07
  3.230 -0.129E-07 -0.129E-07
  3.240 -0.721E-08 -0.719E-08
  3.250 -0.367E-08 -0.366E-08
  3.260 -0.165E-08 -0.165E-08
  3.270 -0.877E-09 -0.875E-09
  3.280 -0.422E-09 -0.421E-09
  3.290  0.138E-09  0.138E-09
  3.300  0.274E-09  0.273E-09
  3.310  0.537E-09  0.536E-09
  3.320  0.104E-08  0.104E-08
  3.330  0.200E-08  0.199E-08
  3.340  0.379E-08  0.378E-08
  3.350  0.711E-08  0.709E-08
  3.360  0.132E-07  0.132E-07
  3.370  0.242E-07  0.242E-07
  3.380  0.440E-07  0.439E-07
  3.390  0.791E-07  0.789E-07
  3.400  0.141E-06  0.140E-06
  3.410  0.247E-06  0.247E-06
  3.420  0.430E-06  0.429E-06
  3.430  0.740E-06  0.738E-06
  3.440  0.126E-05  0.126E-05
  3.450  0.212E-05  0.211E-05
  3.460  0.353E-05  0.352E-05
  3.470  0.582E-05  0.580E-05
  3.480  0.948E-05  0.946E-05
  3.490  0.153E-04  0.152E-04
  3.500  0.244E-04  0.243E-04
  3.510  0.385E-04  0.384E-04
  3.520  0.600E-04  0.599E-04
  3.530  0.927E-04  0.924E-04
  3.540  0.142E-03  0.141E-03
  3.550  0.214E-03  0.213E-03
  3.560  0.320E-03  0.319E-03
  3.570  0.473E-03  0.471E-03
  3.580  0.692E-03  0.690E-03
  3.590  0.100E-02  0.998E-03
  3.600  0.143E-02  0.143E-02
  3.610  0.203E-02  0.202E-02
  3.620  0.284E-02  0.284E-02
  3.630  0.394E-02  0.393E-02
  3.640  0.541E-02  0.540E-02
  3.650  0.735E-02  0.732E-02
  3.660  0.987E-02  0.984E-02
  3.670  0.131E-01  0.131E-01
  3.680  0.173E-01  0.172E-01
  3.690  0.225E-01  0.224E-01
  3.700  0.289E-01  0.288E-01
  3.710  0.369E-01  0.368E-01
  3.720  0.465E-01  0.464E-01
  3.730  0.581E-01  0.580E-01
  3.740  0.719E-01  0.717E-01
  3.750  0.880E-01  0.877E-01
  3.760  0.107E+00  0.106E+00
  3.770  0.128E+00  0.128E+00
  3.780  0.152E+00  0.152E+00
  3.790  0.179E+00  0.179E+00
  3.800  0.209E+00  0.208E+00
  3.810  0.241E+00  0.241E+00
  3.820  0.276E+00  0.275E+00
  3.830  0.313E+00  0.312E+00
  3.840  0.352E+00  0.351E+00
  3.850  0.393E+00  0.391E+00
  3.860  0.434E+00  0.432E+00
  3.870  0.475E+00  0.474E+00
  3.880  0.517E+00  0.515E+00
  3.890  0.557E+00  0.556E+00
  3.900  0.597E+00  0.595E+00
  3.910  0.634E+00  0.632E+00
  3.920  0.669E+00  0.667E+00
  3.930  0.702E+00  0.700E+00
  3.940  0.731E+00  0.729E+00
  3.950  0.757E+00  0.755E+00
  3.960  0.780E+00  0.777E+00
  3.970  0.799E+00  0.797E+00
  3.980  0.816E+00  0.813E+00
  3.990  0.830E+00  0.827E+00
  4.000  0.841E+00  0.838E+00
  4.010  0.850E+00  0.848E+00
  4.020  0.859E+00  0.856E+00
  4.030  0.866E+00  0.864E+00
  4.040  0.874E+00  0.871E+00
  4.050  0.882E+00  0.880E+00
  4.060  0.892E+00  0.889E+00
  4.070  0.903E+00  0.900E+00
  4.080  0.916E+00  0.913E+00
  4.090  0.931E+00  0.928E+00
  4.100  0.948E+00  0.945E+00
  4.110  0.967E+00  0.964E+00
  4.120  0.987E+00  0.984E+00
  4.130  0.101E+01  0.100E+01
  4.140  0.103E+01  0.103E+01
  4.150  0.105E+01  0.105E+01
  4.160  0.107E+01  0.107E+01
  4.170  0.109E+01  0.108E+01
  4.180  0.110E+01  0.110E+01
  4.190  0.111E+01  0.111E+01
  4.200  0.112E+01  0.112E+01
  4.210  0.113E+01  0.113E+01
  4.220  0.113E+01  0.113E+01
  4.230  0.113E+01  0.113E+01
  4.240  0.113E+01  0.113E+01
  4.250  0.113E+01  0.112E+01
  4.260  0.112E+01  0.112E+01
  4.270  0.112E+01  0.111E+01
  4.280  0.111E+01  0.111E+01
  4.290  0.112E+01  0.111E+01
  4.300  0.112E+01  0.111E+01
  4.310  0.113E+01  0.112E+01
  4.320  0.114E+01  0.113E+01
  4.330  0.115E+01  0.115E+01
  4.340  0.117E+01  0.117E+01
  4.350  0.120E+01  0.119E+01
  4.360  0.123E+01  0.122E+01
  4.370  0.126E+01  0.125E+01
  4.380  0.129E+01  0.129E+01
  4.390  0.132E+01  0.132E+01
  4.400  0.136E+01  0.135E+01
  4.410  0.139E+01  0.139E+01
  4.420  0.142E+01  0.141E+01
  4.430  0.144E+01  0.144E+01
  4.440  0.147E+01  0.146E+01
  4.450  0.148E+01  0.148E+01
  4.460  0.149E+01  0.148E+01
  4.470  0.149E+01  0.149E+01
  4.480  0.149E+01  0.148E+01
  4.490  0.148E+01  0.147E+01
  4.500  0.146E+01  0.146E+01
  4.510  0.144E+01  0.143E+01
  4.520  0.141E+01  0.141E+01
  4.530  0.138E+01  0.137E+01
  4.540  0.134E+01  0.134E+01
  4.550  0.131E+01  0.130E+01
  4.560  0.127E+01  0.127E+01
  4.570  0.123E+01  0.123E+01
  4.580  0.119E+01  0.119E+01
  4.590  0.116E+01  0.115E+01
  4.600  0.112E+01  0.112E+01
  4.610  0.109E+01  0.109E+01
  4.620  0.106E+01  0.106E+01
  4.630  0.104E+01  0.103E+01
  4.640  0.101E+01  0.101E+01
  4.650  0.992E+00  0.988E+00
  4.660  0.974E+00  0.970E+00
  4.670  0.958E+00  0.954E+00
  4.680  0.944E+00  0.940E+00
  4.690  0.932E+00  0.928E+00
  4.700  0.921E+00  0.917E+00
  4.710  0.912E+00  0.908E+00
  4.720  0.904E+00  0.900E+00
  4.730  0.897E+00  0.893E+00
  4.740  0.890E+00  0.886E+00
  4.750  0.884E+00  0.880E+00
  4.760  0.879E+00  0.875E+00
  4.770  0.873E+00  0.869E+00
  4.780  0.868E+00  0.864E+00
  4.790  0.863E+00  0.859E+00
  4.800  0.859E+00  0.855E+00
  4.810  0.854E+00  0.850E+00
  4.820  0.849E+00  0.845E+00
  4.830  0.845E+00  0.841E+00
  4.840  0.840E+00  0.836E+00
  4.850  0.836E+00  0.832E+00
  4.860  0.831E+00  0.827E+00
  4.870  0.827E+00  0.823E+00
  4.880  0.823E+00  0.819E+00
  4.890  0.819E+00  0.815E+00
  4.900  0.815E+00  0.811E+00
  4.910  0.811E+00  0.807E+00
  4.920  0.807E+00  0.803E+00
  4.930  0.803E+00  0.799E+00
  4.940  0.800E+00  0.795E+00
  4.950  0.796E+00  0.792E+00
  4.960  0.792E+00  0.788E+00
  4.970  0.789E+00  0.785E+00
  4.980  0.786E+00  0.782E+00
  4.990  0.782E+00  0.778E+00
  5.000  0.779E+00  0.775E+00
  5.010  0.776E+00  0.772E+00
  5.020  0.773E+00  0.769E+00
  5.030  0.770E+00  0.766E+00
  5.040  0.768E+00  0.763E+00
  5.050  0.765E+00  0.761E+00
  5.060  0.762E+00  0.758E+00
  5.070  0.760E+00  0.755E+00
  5.080  0.757E+00  0.753E+00
  5.090  0.755E+00  0.751E+00
  5.100  0.752E+00  0.748E+00
  5.110  0.750E+00  0.746E+00
  5.120  0.748E+00  0.744E+00
  5.130  0.746E+00  0.742E+00
  5.140  0.744E+00  0.740E+00
  5.150  0.742E+00  0.738E+00
  5.160  0.740E+00  0.736E+00
  5.170  0.739E+00  0.734E+00
  5.180  0.737E+00  0.733E+00
  5.190  0.735E+00  0.731E+00
  5.200  0.734E+00  0.729E+00
  5.210  0.732E+00  0.728E+00
  5.220  0.731E+00  0.727E+00
  5.230  0.730E+00  0.725E+00
  5.240  0.729E+00  0.724E+00
  5.250  0.727E+00  0.723E+00
  5.260  0.726E+00  0.722E+00
  5.270  0.726E+00  0.721E+00
  5.280  0.725E+00  0.720E+00
  5.290  0.724E+00  0.720E+00
  5.300  0.723E+00  0.719E+00
  5.310  0.723E+00  0.718E+00
  5.320  0.722E+00  0.718E+00
  5.330  0.722E+00  0.717E+00
  5.340  0.721E+00  0.717E+00
  5.350  0.721E+00  0.717E+00
  5.360  0.721E+00  0.717E+00
  5.370  0.721E+00  0.717E+00
  5.380  0.721E+00  0.717E+00
  5.390  0.721E+00  0.717E+00
  5.400  0.721E+00  0.717E+00
  5.410  0.722E+00  0.717E+00
  5.420  0.722E+00  0.718E+00
  5.430  0.722E+00  0.718E+00
  5.440  0.723E+00  0.718E+00
  5.450  0.724E+00  0.719E+00
  5.460  0.724E+00  0.720E+00
  5.470  0.725E+00  0.720E+00
  5.480  0.726E+00  0.721E+00
  5.490  0.726E+00  0.722E+00
  5.500  0.727E+00  0.723E+00
  5.510  0.728E+00  0.724E+00
  5.520  0.729E+00  0.725E+00
  5.530  0.730E+00  0.726E+00
  5.540  0.731E+00  0.727E+00
  5.550  0.732E+00  0.728E+00
  5.560  0.733E+00  0.729E+00
  5.570  0.735E+00  0.730E+00
  5.580  0.736E+00  0.732E+00
  5.590  0.738E+00  0.733E+00
  5.600  0.740E+00  0.735E+00
  5.610  0.743E+00  0.738E+00
  5.620  0.746E+00  0.741E+00
  5.630  0.750E+00  0.745E+00
  5.640  0.755E+00  0.750E+00
  5.650  0.761E+00  0.757E+00
  5.660  0.770E+00  0.765E+00
  5.670  0.780E+00  0.775E+00
  5.680  0.793E+00  0.789E+00
  5.690  0.810E+00  0.805E+00
  5.700  0.830E+00  0.825E+00
  5.710  0.855E+00  0.850E+00
  5.720  0.886E+00  0.881E+00
  5.730  0.922E+00  0.917E+00
  5.740  0.965E+00  0.960E+00
  5.750  0.101E+01  0.101E+01
  5.760  0.107E+01  0.107E+01
  5.770  0.114E+01  0.113E+01
  5.780  0.121E+01  0.120E+01
  5.790  0.129E+01  0.128E+01
  5.800  0.138E+01  0.137E+01
  5.810  0.147E+01  0.146E+01
  5.820  0.156E+01  0.156E+01
  5.830  0.166E+01  0.166E+01
  5.840  0.176E+01  0.176E+01
  5.850  0.186E+01  0.185E+01
  5.860  0.196E+01  0.195E+01
  5.870  0.204E+01  0.204E+01
  5.880  0.212E+01  0.211E+01
  5.890  0.219E+01  0.218E+01
  5.900  0.225E+01  0.224E+01
  5.910  0.229E+01  0.228E+01
  5.920  0.232E+01  0.231E+01
  5.930  0.233E+01  0.232E+01
  5.940  0.232E+01  0.231E+01
  5.950  0.230E+01  0.229E+01
  5.960  0.227E+01  0.226E+01
  5.970  0.222E+01  0.221E+01
  5.980  0.216E+01  0.215E+01
  5.990  0.209E+01  0.209E+01
  6.000  0.202E+01  0.201E+01
  6.010  0.194E+01  0.194E+01
  6.020  0.187E+01  0.186E+01
  6.030  0.179E+01  0.178E+01
  6.040  0.171E+01  0.171E+01
  6.050  0.164E+01  0.164E+01
  6.060  0.158E+01  0.157E+01
  6.070  0.152E+01  0.152E+01
  6.080  0.148E+01  0.147E+01
  6.090  0.144E+01  0.143E+01
  6.100  0.141E+01  0.140E+01
  6.110  0.139E+01  0.138E+01
  6.120  0.138E+01  0.137E+01
  6.130  0.138E+01  0.138E+01
  6.140  0.139E+01  0.139E+01
  6.150  0.141E+01  0.141E+01
  6.160  0.144E+01  0.143E+01
  6.170  0.148E+01  0.147E+01
  6.180  0.153E+01  0.152E+01
  6.190  0.158E+01  0.157E+01
  6.200  0.164E+01  0.163E+01
  6.210  0.171E+01  0.170E+01
  6.220  0.178E+01  0.177E+01
  6.230  0.185E+01  0.184E+01
  6.240  0.193E+01  0.192E+01
  6.250  0.200E+01  0.199E+01
  6.260  0.208E+01  0.206E+01
  6.270  0.214E+01  0.213E+01
  6.280  0.220E+01  0.219E+01
  6.290  0.226E+01  0.225E+01
  6.300  0.230E+01  0.229E+01
  6.310  0.234E+01  0.232E+01
  6.320  0.236E+01  0.234E+01
  6.330  0.237E+01  0.235E+01
  6.340  0.236E+01  0.235E+01
  6.350  0.235E+01  0.233E+01
  6.360  0.232E+01  0.231E+01
  6.370  0.229E+01  0.227E+01
  6.380  0.224E+01  0.223E+01
  6.390  0.219E+01  0.218E+01
  6.400  0.213E+01  0.212E+01
  6.410  0.207E+01  0.206E+01
  6.420  0.201E+01  0.199E+01
  6.430  0.194E+01  0.193E+01
  6.440  0.188E+01  0.186E+01
  6.450  0.181E+01  0.180E+01
  6.460  0.175E+01  0.174E+01
  6.470  0.170E+01  0.168E+01
  6.480  0.164E+01  0.163E+01
  6.490  0.159E+01  0.158E+01
  6.500  0.155E+01  0.153E+01
  6.510  0.150E+01  0.149E+01
  6.520  0.147E+01  0.145E+01
  6.530  0.143E+01  0.142E+01
  6.540  0.140E+01  0.139E+01
  6.550  0.137E+01  0.136E+01
  6.560  0.134E+01  0.133E+01
  6.570  0.132E+01  0.130E+01
  6.580  0.129E+01  0.128E+01
  6.590  0.127E+01  0.126E+01
  6.600  0.125E+01  0.124E+01
  6.610  0.123E+01  0.122E+01
  6.620  0.122E+01  0.121E+01
  6.630  0.120E+01  0.119E+01
  6.640  0.119E+01  0.118E+01
  6.650  0.118E+01  0.117E+01
  6.660  0.117E+01  0.116E+01
  6.670  0.116E+01  0.115E+01
  6.680  0.115E+01  0.114E+01
  6.690  0.114E+01  0.113E+01
  6.700  0.114E+01  0.113E+01
  6.710  0.113E+01  0.112E+01
  6.720  0.113E+01  0.112E+01
  6.730  0.113E+01  0.112E+01
  6.740  0.112E+01  0.111E+01
  6.750  0.112E+01  0.111E+01
  6.760  0.112E+01  0.111E+01
  6.770  0.112E+01  0.111E+01
  6.780  0.112E+01  0.111E+01
  6.790  0.112E+01  0.111E+01
  6.800  0.112E+01  0.111E+01
  6.810  0.112E+01  0.111E+01
  6.820  0.112E+01  0.110E+01
  6.830  0.112E+01  0.110E+01
  6.840  0.112E+01  0.110E+01
  6.850  0.112E+01  0.110E+01
  6.860  0.111E+01  0.110E+01
  6.870  0.111E+01  0.110E+01
  6.880  0.111E+01  0.110E+01
  6.890  0.111E+01  0.110E+01
  6.900  0.111E+01  0.110E+01
  6.910  0.111E+01  0.110E+01
  6.920  0.111E+01  0.110E+01
  6.930  0.111E+01  0.110E+01
  6.940  0.112E+01  0.110E+01
  6.950  0.112E+01  0.110E+01
  6.960  0.112E+01  0.110E+01
  6.970  0.112E+01  0.111E+01
  6.980  0.112E+01  0.111E+01
  6.990  0.112E+01  0.111E+01
  7.000  0.112E+01  0.111E+01
  7.010  0.113E+01  0.111E+01
  7.020  0.113E+01  0.112E+01
  7.030  0.113E+01  0.112E+01
  7.040  0.114E+01  0.113E+01
  7.050  0.114E+01  0.113E+01
  7.060  0.115E+01  0.114E+01
  7.070  0.116E+01  0.114E+01
  7.080  0.116E+01  0.115E+01
  7.090  0.117E+01  0.116E+01
  7.100  0.118E+01  0.116E+01
  7.110  0.119E+01  0.117E+01
  7.120  0.120E+01  0.118E+01
  7.130  0.121E+01  0.119E+01
  7.140  0.122E+01  0.120E+01
  7.150  0.123E+01  0.121E+01
  7.160  0.124E+01  0.122E+01
  7.170  0.125E+01  0.124E+01
  7.180  0.126E+01  0.125E+01
  7.190  0.127E+01  0.125E+01
  7.200  0.128E+01  0.126E+01
  7.210  0.129E+01  0.127E+01
  7.220  0.129E+01  0.128E+01
  7.230  0.130E+01  0.128E+01
  7.240  0.130E+01  0.128E+01
  7.250  0.130E+01  0.128E+01
  7.260  0.130E+01  0.128E+01
  7.270  0.129E+01  0.128E+01
  7.280  0.129E+01  0.127E+01
  7.290  0.128E+01  0.127E+01
  7.300  0.128E+01  0.126E+01
  7.310  0.127E+01  0.125E+01
  7.320  0.126E+01  0.124E+01
  7.330  0.125E+01  0.123E+01
  7.340  0.124E+01  0.123E+01
  7.350  0.123E+01  0.122E+01
  7.360  0.123E+01  0.121E+01
  7.370  0.122E+01  0.121E+01
  7.380  0.122E+01  0.120E+01
  7.390  0.121E+01  0.120E+01
  7.400  0.121E+01  0.120E+01
  7.410  0.121E+01  0.120E+01
  7.420  0.121E+01  0.120E+01
  7.430  0.121E+01  0.119E+01
  7.440  0.121E+01  0.119E+01
  7.450  0.120E+01  0.119E+01
  7.460  0.120E+01  0.118E+01
  7.470  0.119E+01  0.117E+01
  7.480  0.118E+01  0.116E+01
  7.490  0.116E+01  0.115E+01
  7.500  0.114E+01  0.113E+01
  7.510  0.112E+01  0.111E+01
  7.520  0.109E+01  0.108E+01
  7.530  0.106E+01  0.105E+01
  7.540  0.103E+01  0.102E+01
  7.550  0.999E+00  0.986E+00
  7.560  0.964E+00  0.951E+00
  7.570  0.928E+00  0.917E+00
  7.580  0.894E+00  0.882E+00
  7.590  0.860E+00  0.849E+00
  7.600  0.830E+00  0.819E+00
  7.610  0.802E+00  0.792E+00
  7.620  0.778E+00  0.768E+00
  7.630  0.758E+00  0.748E+00
  7.640  0.743E+00  0.733E+00
  7.650  0.732E+00  0.723E+00
  7.660  0.726E+00  0.716E+00
  7.670  0.724E+00  0.714E+00
  7.680  0.725E+00  0.716E+00
  7.690  0.730E+00  0.721E+00
  7.700  0.738E+00  0.728E+00
  7.710  0.747E+00  0.737E+00
  7.720  0.757E+00  0.747E+00
  7.730  0.767E+00  0.757E+00
  7.740  0.777E+00  0.767E+00
  7.750  0.785E+00  0.775E+00
  7.760  0.791E+00  0.781E+00
  7.770  0.795E+00  0.785E+00
  7.780  0.796E+00  0.786E+00
  7.790  0.794E+00  0.783E+00
  7.800  0.788E+00  0.777E+00
  7.810  0.779E+00  0.768E+00
  7.820  0.766E+00  0.756E+00
  7.830  0.751E+00  0.741E+00
  7.840  0.734E+00  0.724E+00
  7.850  0.714E+00  0.704E+00
  7.860  0.694E+00  0.684E+00
  7.870  0.673E+00  0.663E+00
  7.880  0.652E+00  0.643E+00
  7.890  0.633E+00  0.624E+00
  7.900  0.616E+00  0.607E+00
  7.910  0.601E+00  0.592E+00
  7.920  0.590E+00  0.581E+00
  7.930  0.583E+00  0.574E+00
  7.940  0.580E+00  0.571E+00
  7.950  0.581E+00  0.572E+00
  7.960  0.588E+00  0.578E+00
  7.970  0.599E+00  0.590E+00
  7.980  0.615E+00  0.606E+00
  7.990  0.636E+00  0.626E+00
  8.000  0.661E+00  0.651E+00
  8.010  0.691E+00  0.680E+00
  8.020  0.723E+00  0.711E+00
  8.030  0.758E+00  0.746E+00
  8.040  0.795E+00  0.782E+00
  8.050  0.833E+00  0.820E+00
  8.060  0.871E+00  0.858E+00
  8.070  0.909E+00  0.895E+00
  8.080  0.946E+00  0.931E+00
  8.090  0.980E+00  0.965E+00
  8.100  0.101E+01  0.996E+00
  8.110  0.104E+01  0.102E+01
  8.120  0.107E+01  0.105E+01
  8.130  0.109E+01  0.107E+01
  8.140  0.110E+01  0.109E+01
  8.150  0.111E+01  0.110E+01
  8.160  0.112E+01  0.110E+01
  8.170  0.113E+01  0.111E+01
  8.180  0.113E+01  0.111E+01
  8.190  0.112E+01  0.110E+01
  8.200  0.111E+01  0.110E+01
  8.210  0.110E+01  0.109E+01
  8.220  0.109E+01  0.107E+01
  8.230  0.108E+01  0.106E+01
  8.240  0.106E+01  0.105E+01
  8.250  0.105E+01  0.103E+01
  8.260  0.103E+01  0.101E+01
  8.270  0.101E+01  0.992E+00
  8.280  0.989E+00  0.973E+00
  8.290  0.970E+00  0.954E+00
  8.300  0.950E+00  0.934E+00
  8.310  0.931E+00  0.915E+00
  8.320  0.912E+00  0.896E+00
  8.330  0.893E+00  0.878E+00
  8.340  0.875E+00  0.860E+00
  8.350  0.859E+00  0.844E+00
  8.360  0.843E+00  0.829E+00
  8.370  0.830E+00  0.816E+00
  8.380  0.818E+00  0.804E+00
  8.390  0.809E+00  0.795E+00
  8.400  0.802E+00  0.788E+00
  8.410  0.798E+00  0.784E+00
  8.420  0.797E+00  0.783E+00
  8.430  0.799E+00  0.785E+00
  8.440  0.805E+00  0.791E+00
  8.450  0.815E+00  0.801E+00
  8.460  0.829E+00  0.815E+00
  8.470  0.848E+00  0.834E+00
  8.480  0.872E+00  0.857E+00
  8.490  0.901E+00  0.885E+00
  8.500  0.935E+00  0.918E+00
  8.510  0.974E+00  0.957E+00
  8.520  0.102E+01  0.100E+01
  8.530  0.107E+01  0.105E+01
  8.540  0.112E+01  0.110E+01
  8.550  0.118E+01  0.116E+01
  8.560  0.125E+01  0.122E+01
  8.570  0.131E+01  0.129E+01
  8.580  0.138E+01  0.136E+01
  8.590  0.145E+01  0.143E+01
  8.600  0.152E+01  0.150E+01
  8.610  0.159E+01  0.156E+01
  8.620  0.166E+01  0.163E+01
  8.630  0.172E+01  0.169E+01
  8.640  0.178E+01  0.174E+01
  8.650  0.183E+01  0.179E+01
  8.660  0.187E+01  0.183E+01
  8.670  0.190E+01  0.187E+01
  8.680  0.193E+01  0.189E+01
  8.690  0.194E+01  0.191E+01
  8.700  0.195E+01  0.192E+01
  8.710  0.195E+01  0.191E+01
  8.720  0.194E+01  0.191E+01
  8.730  0.192E+01  0.189E+01
  8.740  0.190E+01  0.187E+01
  8.750  0.187E+01  0.184E+01
  8.760  0.184E+01  0.181E+01
  8.770  0.181E+01  0.177E+01
  8.780  0.177E+01  0.173E+01
  8.790  0.172E+01  0.169E+01
  8.800  0.168E+01  0.165E+01
  8.810  0.163E+01  0.160E+01
  8.820  0.158E+01  0.155E+01
  8.830  0.153E+01  0.150E+01
  8.840  0.148E+01  0.145E+01
  8.850  0.142E+01  0.139E+01
  8.860  0.136E+01  0.133E+01
  8.870  0.130E+01  0.128E+01
  8.880  0.124E+01  0.121E+01
  8.890  0.118E+01  0.115E+01
  8.900  0.112E+01  0.109E+01
  8.910  0.106E+01  0.103E+01
  8.920  0.999E+00  0.974E+00
  8.930  0.942E+00  0.919E+00
  8.940  0.889E+00  0.866E+00
  8.950  0.840E+00  0.818E+00
  8.960  0.796E+00  0.775E+00
  8.970  0.758E+00  0.737E+00
  8.980  0.724E+00  0.704E+00
  8.990  0.697E+00  0.677E+00
  9.000  0.674E+00  0.654E+00
  9.010  0.656E+00  0.637E+00
  9.020  0.642E+00  0.623E+00
  9.030  0.631E+00  0.612E+00
  9.040  0.622E+00  0.604E+00
  9.050  0.615E+00  0.597E+00
  9.060  0.608E+00  0.590E+00
  9.070  0.600E+00  0.583E+00
  9.080  0.591E+00  0.574E+00
  9.090  0.579E+00  0.563E+00
  9.100  0.565E+00  0.548E+00
  9.110  0.546E+00  0.531E+00
  9.120  0.524E+00  0.509E+00
  9.130  0.498E+00  0.484E+00
  9.140  0.467E+00  0.454E+00
  9.150  0.433E+00  0.421E+00
  9.160  0.395E+00  0.384E+00
  9.170  0.355E+00  0.345E+00
  9.180  0.313E+00  0.304E+00
  9.190  0.269E+00  0.262E+00
  9.200  0.226E+00  0.219E+00
  9.210  0.183E+00  0.178E+00
  9.220  0.141E+00  0.138E+00
  9.230  0.103E+00  0.997E-01
  9.240  0.668E-01  0.649E-01
  9.250  0.347E-01  0.337E-01
  9.260  0.675E-02  0.654E-02
  9.270 -0.169E-01 -0.164E-01
  9.280 -0.361E-01 -0.351E-01
  9.290 -0.510E-01 -0.496E-01
  9.300 -0.618E-01 -0.601E-01
  9.310 -0.688E-01 -0.670E-01
  9.320 -0.725E-01 -0.705E-01
  9.330 -0.733E-01 -0.713E-01
  9.340 -0.718E-01 -0.698E-01
  9.350 -0.684E-01 -0.665E-01
  9.360 -0.636E-01 -0.618E-01
  9.370 -0.578E-01 -0.563E-01
  9.380 -0.515E-01 -0.501E-01
  9.390 -0.450E-01 -0.437E-01
  9.400 -0.384E-01 -0.373E-01
  9.410 -0.319E-01 -0.311E-01
  9.420 -0.257E-01 -0.251E-01
  9.430 -0.198E-01 -0.193E-01
  9.440 -0.141E-01 -0.138E-01
  9.450 -0.859E-02 -0.842E-02
  9.460 -0.312E-02 -0.312E-02
  9.470  0.246E-02  0.228E-02
  9.480  0.834E-02  0.796E-02
  9.490  0.147E-01  0.141E-01
  9.500  0.219E-01  0.210E-01
  9.510  0.300E-01  0.289E-01
  9.520  0.394E-01  0.380E-01
  9.530  0.504E-01  0.485E-01
  9.540  0.632E-01  0.608E-01
  9.550  0.781E-01  0.752E-01
  9.560  0.954E-01  0.919E-01
  9.570  0.115E+00  0.111E+00
  9.580  0.138E+00  0.133E+00
  9.590  0.165E+00  0.159E+00
  9.600  0.195E+00  0.188E+00
  9.610  0.229E+00  0.220E+00
  9.620  0.267E+00  0.257E+00
  9.630  0.310E+00  0.299E+00
  9.640  0.358E+00  0.345E+00
  9.650  0.411E+00  0.396E+00
  9.660  0.469E+00  0.452E+00
  9.670  0.534E+00  0.514E+00
  9.680  0.604E+00  0.582E+00
  9.690  0.681E+00  0.656E+00
  9.700  0.764E+00  0.736E+00
  9.710  0.854E+00  0.822E+00
  9.720  0.950E+00  0.915E+00
  9.730  0.105E+01  0.101E+01
  9.740  0.116E+01  0.112E+01
  9.750  0.128E+01  0.123E+01
  9.760  0.139E+01  0.134E+01
  9.770  0.152E+01  0.146E+01
  9.780  0.164E+01  0.158E+01
  9.790  0.177E+01  0.170E+01
  9.800  0.189E+01  0.182E+01
  9.810  0.201E+01  0.194E+01
  9.820  0.213E+01  0.205E+01
  9.830  0.225E+01  0.216E+01
  9.840  0.236E+01  0.226E+01
  9.850  0.246E+01  0.236E+01
  9.860  0.254E+01  0.245E+01
  9.870  0.262E+01  0.252E+01
  9.880  0.269E+01  0.258E+01
  9.890  0.274E+01  0.263E+01
  9.900  0.278E+01  0.267E+01
  9.910  0.281E+01  0.270E+01
  9.920  0.282E+01  0.271E+01
  9.930  0.282E+01  0.271E+01
  9.940  0.280E+01  0.270E+01
  9.950  0.278E+01  0.267E+01
  9.960  0.274E+01  0.264E+01
  9.970  0.269E+01  0.259E+01
  9.980  0.264E+01  0.254E+01
  9.990  0.258E+01  0.248E+01
 10.000  0.251E+01  0.242E+01
 10.010  0.244E+01  0.235E+01
 10.020  0.237E+01  0.228E+01
 10.030  0.229E+01  0.221E+01
 10.040  0.222E+01  0.214E+01
 10.050  0.215E+01  0.207E+01
 10.060  0.208E+01  0.201E+01
 10.070  0.202E+01  0.195E+01
 10.080  0.196E+01  0.189E+01
 10.090  0.191E+01  0.184E+01
 10.100  0.186E+01  0.179E+01
 10.110  0.182E+01  0.176E+01
 10.120  0.179E+01  0.172E+01
 10.130  0.176E+01  0.170E+01
 10.140  0.174E+01  0.168E+01
 10.150  0.172E+01  0.166E+01
 10.160  0.171E+01  0.165E+01
 10.170  0.171E+01  0.165E+01
 10.180  0.171E+01  0.165E+01
 10.190  0.171E+01  0.166E+01
 10.200  0.172E+01  0.167E+01
 10.210  0.174E+01  0.168E+01
 10.220  0.176E+01  0.170E+01
 10.230  0.178E+01  0.172E+01
 10.240  0.180E+01  0.174E+01
 10.250  0.183E+01  0.177E+01
 10.260  0.186E+01  0.180E+01
 10.270  0.189E+01  0.183E+01
 10.280  0.192E+01  0.186E+01
 10.290  0.196E+01  0.190E+01
 10.300  0.199E+01  0.193E+01
 10.310  0.202E+01  0.195E+01
 10.320  0.204E+01  0.198E+01
 10.330  0.206E+01  0.200E+01
 10.340  0.208E+01  0.201E+01
 10.350  0.208E+01  0.202E+01
 10.360  0.208E+01  0.202E+01
 10.370  0.207E+01  0.201E+01
 10.380  0.204E+01  0.198E+01
 10.390  0.201E+01  0.195E+01
 10.400  0.196E+01  0.191E+01
 10.410  0.191E+01  0.185E+01
 10.420  0.184E+01  0.178E+01
 10.430  0.176E+01  0.171E+01
 10.440  0.168E+01  0.162E+01
 10.450  0.158E+01  0.153E+01
 10.460  0.149E+01  0.144E+01
 10.470  0.139E+01  0.134E+01
 10.480  0.129E+01  0.125E+01
 10.490  0.119E+01  0.115E+01
 10.500  0.110E+01  0.106E+01
 10.510  0.101E+01  0.970E+00
 10.520  0.923E+00  0.889E+00
 10.530  0.849E+00  0.816E+00
 10.540  0.783E+00  0.752E+00
 10.550  0.726E+00  0.697E+00
 10.560  0.679E+00  0.652E+00
 10.570  0.641E+00  0.615E+00
 10.580  0.612E+00  0.586E+00
 10.590  0.591E+00  0.565E+00
 10.600  0.576E+00  0.552E+00
 10.610  0.568E+00  0.544E+00
 10.620  0.565E+00  0.541E+00
 10.630  0.565E+00  0.541E+00
 10.640  0.569E+00  0.545E+00
 10.650  0.575E+00  0.551E+00
 10.660  0.582E+00  0.558E+00
 10.670  0.590E+00  0.565E+00
 10.680  0.597E+00  0.573E+00
 10.690  0.605E+00  0.580E+00
 10.700  0.612E+00  0.587E+00
 10.710  0.619E+00  0.593E+00
 10.720  0.624E+00  0.599E+00
 10.730  0.629E+00  0.603E+00
 10.740  0.632E+00  0.607E+00
 10.750  0.635E+00  0.610E+00
 10.760  0.638E+00  0.612E+00
 10.770  0.639E+00  0.614E+00
 10.780  0.640E+00  0.615E+00
 10.790  0.641E+00  0.615E+00
 10.800  0.641E+00  0.616E+00
 10.810  0.641E+00  0.615E+00
 10.820  0.641E+00  0.615E+00
 10.830  0.640E+00  0.614E+00
 10.840  0.639E+00  0.614E+00
 10.850  0.638E+00  0.613E+00
 10.860  0.637E+00  0.612E+00
 10.870  0.636E+00  0.611E+00
 10.880  0.636E+00  0.610E+00
 10.890  0.635E+00  0.609E+00
 10.900  0.634E+00  0.608E+00
 10.910  0.633E+00  0.607E+00
 10.920  0.632E+00  0.606E+00
 10.930  0.631E+00  0.605E+00
 10.940  0.630E+00  0.605E+00
 10.950  0.629E+00  0.604E+00
 10.960  0.628E+00  0.603E+00
 10.970  0.627E+00  0.602E+00
 10.980  0.627E+00  0.601E+00
 10.990  0.626E+00  0.600E+00
 11.000  0.625E+00  0.600E+00
 11.010  0.624E+00  0.599E+00
 11.020  0.623E+00  0.598E+00
 11.030  0.623E+00  0.597E+00
 11.040  0.622E+00  0.597E+00
 11.050  0.621E+00  0.596E+00
 11.060  0.621E+00  0.595E+00
 11.070  0.620E+00  0.595E+00
 11.080  0.620E+00  0.594E+00
 11.090  0.619E+00  0.594E+00
 11.100  0.619E+00  0.593E+00
 11.110  0.618E+00  0.593E+00
 11.120  0.618E+00  0.592E+00
 11.130  0.617E+00  0.592E+00
 11.140  0.617E+00  0.592E+00
 11.150  0.616E+00  0.591E+00
 11.160  0.616E+00  0.591E+00
 11.170  0.615E+00  0.590E+00
 11.180  0.615E+00  0.590E+00
 11.190  0.615E+00  0.589E+00
 11.200  0.614E+00  0.589E+00
 11.210  0.614E+00  0.589E+00
 11.220  0.614E+00  0.588E+00
 11.230  0.614E+00  0.588E+00
 11.240  0.613E+00  0.588E+00
 11.250  0.613E+00  0.588E+00
 11.260  0.613E+00  0.588E+00
 11.270  0.613E+00  0.587E+00
 11.280  0.613E+00  0.587E+00
 11.290  0.613E+00  0.587E+00
 11.300  0.612E+00  0.587E+00
 11.310  0.612E+00  0.587E+00
 11.320  0.612E+00  0.586E+00
 11.330  0.612E+00  0.586E+00
 11.340  0.612E+00  0.586E+00
 11.350  0.611E+00  0.586E+00
 11.360  0.611E+00  0.586E+00
 11.370  0.611E+00  0.586E+00
 11.380  0.611E+00  0.586E+00
 11.390  0.612E+00  0.586E+00
 11.400  0.612E+00  0.586E+00
 11.410  0.612E+00  0.586E+00
 11.420  0.612E+00  0.586E+00
 11.430  0.612E+00  0.586E+00
 11.440  0.612E+00  0.586E+00
 11.450  0.612E+00  0.586E+00
 11.460  0.612E+00  0.586E+00
 11.470  0.612E+00  0.586E+00
 11.480  0.612E+00  0.586E+00
 11.490  0.613E+00  0.586E+00
 11.500  0.613E+00  0.587E+00
 11.510  0.613E+00  0.587E+00
 11.520  0.613E+00  0.587E+00
 11.530  0.614E+00  0.588E+00
 11.540  0.614E+00  0.588E+00
 11.550  0.615E+00  0.589E+00
 11.560  0.616E+00  0.589E+00
 11.570  0.617E+00  0.590E+00
 11.580  0.619E+00  0.591E+00
 11.590  0.621E+00  0.592E+00
 11.600  0.623E+00  0.594E+00
 11.610  0.625E+00  0.596E+00
 11.620  0.629E+00  0.598E+00
 11.630  0.633E+00  0.600E+00
 11.640  0.639E+00  0.603E+00
 11.650  0.646E+00  0.607E+00
 11.660  0.655E+00  0.612E+00
 11.670  0.667E+00  0.618E+00
 11.680  0.681E+00  0.625E+00
 11.690  0.698E+00  0.634E+00
 11.700  0.719E+00  0.644E+00
 11.710  0.745E+00  0.655E+00
 11.720  0.775E+00  0.669E+00
 11.730  0.810E+00  0.684E+00
 11.740  0.851E+00  0.702E+00
 11.750  0.898E+00  0.722E+00
 11.760  0.951E+00  0.744E+00
 11.770  0.101E+01  0.768E+00
 11.780  0.108E+01  0.794E+00
 11.790  0.115E+01  0.822E+00
 11.800  0.123E+01  0.852E+00
 11.810  0.131E+01  0.883E+00
 11.820  0.140E+01  0.916E+00
 11.830  0.149E+01  0.949E+00
 11.840  0.158E+01  0.983E+00
 11.850  0.167E+01  0.102E+01
 11.860  0.176E+01  0.105E+01
 11.870  0.184E+01  0.108E+01
 11.880  0.192E+01  0.111E+01
 11.890  0.199E+01  0.113E+01
 11.900  0.205E+01  0.116E+01
 11.910  0.210E+01  0.117E+01
 11.920  0.213E+01  0.119E+01
 11.930  0.215E+01  0.120E+01
 11.940  0.216E+01  0.120E+01
 11.950  0.216E+01  0.120E+01
 11.960  0.214E+01  0.120E+01
 11.970  0.211E+01  0.119E+01
 11.980  0.208E+01  0.118E+01
 11.990  0.203E+01  0.117E+01
 12.000  0.198E+01  0.116E+01
 12.010  0.192E+01  0.114E+01
 12.020  0.186E+01  0.112E+01
 12.030  0.179E+01  0.110E+01
 12.040  0.173E+01  0.108E+01
 12.050  0.167E+01  0.107E+01
 12.060  0.161E+01  0.105E+01
 12.070  0.156E+01  0.103E+01
 12.080  0.151E+01  0.102E+01
 12.090  0.146E+01  0.101E+01
 12.100  0.142E+01  0.998E+00
 12.110  0.139E+01  0.990E+00
 12.120  0.136E+01  0.984E+00
 12.130  0.134E+01  0.980E+00
 12.140  0.132E+01  0.979E+00
 12.150  0.131E+01  0.978E+00
 12.160  0.129E+01  0.980E+00
 12.170  0.129E+01  0.983E+00
 12.180  0.128E+01  0.987E+00
 12.190  0.128E+01  0.993E+00
 12.200  0.128E+01  0.999E+00
 12.210  0.128E+01  0.101E+01
 12.220  0.128E+01  0.102E+01
 12.230  0.128E+01  0.102E+01
 12.240  0.129E+01  0.103E+01
 12.250  0.129E+01  0.105E+01
 12.260  0.130E+01  0.106E+01
 12.270  0.131E+01  0.107E+01
 12.280  0.132E+01  0.108E+01
 12.290  0.133E+01  0.109E+01
 12.300  0.134E+01  0.110E+01
 12.310  0.135E+01  0.111E+01
 12.320  0.135E+01  0.112E+01
 12.330  0.136E+01  0.113E+01
 12.340  0.136E+01  0.113E+01
 12.350  0.135E+01  0.113E+01
 12.360  0.135E+01  0.113E+01
 12.370  0.134E+01  0.112E+01
 12.380  0.132E+01  0.111E+01
 12.390  0.130E+01  0.109E+01
 12.400  0.127E+01  0.107E+01
 12.410  0.123E+01  0.105E+01
 12.420  0.120E+01  0.102E+01
 12.430  0.115E+01  0.990E+00
 12.440  0.111E+01  0.956E+00
 12.450  0.106E+01  0.920E+00
 12.460  0.101E+01  0.884E+00
 12.470  0.957E+00  0.847E+00
 12.480  0.908E+00  0.811E+00
 12.490  0.862E+00  0.776E+00
 12.500  0.818E+00  0.744E+00
 12.510  0.778E+00  0.714E+00
 12.520  0.743E+00  0.688E+00
 12.530  0.714E+00  0.666E+00
 12.540  0.689E+00  0.647E+00
 12.550  0.670E+00  0.633E+00
 12.560  0.657E+00  0.622E+00
 12.570  0.648E+00  0.616E+00
 12.580  0.644E+00  0.612E+00
 12.590  0.643E+00  0.611E+00
 12.600  0.646E+00  0.613E+00
 12.610  0.651E+00  0.616E+00
 12.620  0.658E+00  0.621E+00
 12.630  0.667E+00  0.627E+00
 12.640  0.676E+00  0.634E+00
 12.650  0.685E+00  0.640E+00
 12.660  0.694E+00  0.647E+00
 12.670  0.703E+00  0.653E+00
 12.680  0.711E+00  0.659E+00
 12.690  0.718E+00  0.664E+00
 12.700  0.724E+00  0.668E+00
 12.710  0.729E+00  0.672E+00
 12.720  0.733E+00  0.675E+00
 12.730  0.736E+00  0.677E+00
 12.740  0.739E+00  0.678E+00
 12.750  0.740E+00  0.679E+00
 12.760  0.741E+00  0.680E+00
 12.770  0.740E+00  0.680E+00
 12.780  0.740E+00  0.679E+00
 12.790  0.739E+00  0.679E+00
 12.800  0.738E+00  0.678E+00
 12.810  0.736E+00  0.677E+00
 12.820  0.735E+00  0.676E+00
 12.830  0.733E+00  0.675E+00
 12.840  0.732E+00  0.674E+00
 12.850  0.731E+00  0.674E+00
 12.860  0.730E+00  0.673E+00
 12.870  0.729E+00  0.673E+00
 12.880  0.728E+00  0.672E+00
 12.890  0.727E+00  0.672E+00
 12.900  0.727E+00  0.672E+00
 12.910  0.727E+00  0.673E+00
 12.920  0.727E+00  0.673E+00
 12.930  0.727E+00  0.674E+00
 12.940  0.728E+00  0.674E+00
 12.950  0.728E+00  0.675E+00
 12.960  0.729E+00  0.676E+00
 12.970  0.730E+00  0.678E+00
 12.980  0.731E+00  0.679E+00
 12.990  0.733E+00  0.681E+00
 13.000  0.735E+00  0.683E+00
 13.010  0.737E+00  0.685E+00
 13.020  0.739E+00  0.687E+00
 13.030  0.741E+00  0.689E+00
 13.040  0.744E+00  0.692E+00
 13.050  0.747E+00  0.694E+00
 13.060  0.750E+00  0.697E+00
 13.070  0.752E+00  0.700E+00
 13.080  0.756E+00  0.702E+00
 13.090  0.759E+00  0.705E+00
 13.100  0.762E+00  0.708E+00
 13.110  0.766E+00  0.712E+00
 13.120  0.769E+00  0.715E+00
 13.130  0.773E+00  0.718E+00
 13.140  0.777E+00  0.722E+00
 13.150  0.781E+00  0.726E+00
 13.160  0.786E+00  0.730E+00
 13.170  0.790E+00  0.734E+00
 13.180  0.795E+00  0.738E+00
 13.190  0.800E+00  0.743E+00
 13.200  0.806E+00  0.748E+00
 13.210  0.811E+00  0.753E+00
 13.220  0.817E+00  0.758E+00
 13.230  0.823E+00  0.764E+00
 13.240  0.830E+00  0.770E+00
 13.250  0.837E+00  0.776E+00
 13.260  0.844E+00  0.782E+00
 13.270  0.852E+00  0.789E+00
 13.280  0.861E+00  0.797E+00
 13.290  0.870E+00  0.805E+00
 13.300  0.880E+00  0.814E+00
 13.310  0.891E+00  0.824E+00
 13.320  0.903E+00  0.835E+00
 13.330  0.917E+00  0.847E+00
 13.340  0.931E+00  0.860E+00
 13.350  0.948E+00  0.874E+00
 13.360  0.965E+00  0.890E+00
 13.370  0.985E+00  0.908E+00
 13.380  0.101E+01  0.927E+00
 13.390  0.103E+01  0.948E+00
 13.400  0.105E+01  0.970E+00
 13.410  0.108E+01  0.994E+00
 13.420  0.111E+01  0.102E+01
 13.430  0.114E+01  0.105E+01
 13.440  0.117E+01  0.108E+01
 13.450  0.120E+01  0.110E+01
 13.460  0.124E+01  0.113E+01
 13.470  0.127E+01  0.116E+01
 13.480  0.130E+01  0.119E+01
 13.490  0.133E+01  0.122E+01
 13.500  0.136E+01  0.125E+01
 13.510  0.139E+01  0.127E+01
 13.520  0.141E+01  0.130E+01
 13.530  0.143E+01  0.131E+01
 13.540  0.145E+01  0.133E+01
 13.550  0.146E+01  0.134E+01
 13.560  0.147E+01  0.134E+01
 13.570  0.147E+01  0.135E+01
 13.580  0.146E+01  0.134E+01
 13.590  0.146E+01  0.134E+01
 13.600  0.144E+01  0.133E+01
 13.610  0.143E+01  0.131E+01
 13.620  0.141E+01  0.129E+01
 13.630  0.138E+01  0.127E+01
 13.640  0.135E+01  0.125E+01
 13.650  0.132E+01  0.122E+01
 13.660  0.129E+01  0.119E+01
 13.670  0.126E+01  0.116E+01
 13.680  0.122E+01  0.113E+01
 13.690  0.118E+01  0.110E+01
 13.700  0.114E+01  0.106E+01
 13.710  0.110E+01  0.102E+01
 13.720  0.106E+01  0.982E+00
 13.730  0.101E+01  0.942E+00
 13.740  0.970E+00  0.901E+00
 13.750  0.925E+00  0.860E+00
 13.760  0.879E+00  0.818E+00
 13.770  0.835E+00  0.777E+00
 13.780  0.791E+00  0.737E+00
 13.790  0.749E+00  0.698E+00
 13.800  0.710E+00  0.661E+00
 13.810  0.673E+00  0.627E+00
 13.820  0.639E+00  0.596E+00
 13.830  0.610E+00  0.568E+00
 13.840  0.584E+00  0.544E+00
 13.850  0.562E+00  0.524E+00
 13.860  0.545E+00  0.507E+00
 13.870  0.532E+00  0.494E+00
 13.880  0.523E+00  0.485E+00
 13.890  0.517E+00  0.479E+00
 13.900  0.515E+00  0.476E+00
 13.910  0.516E+00  0.476E+00
 13.920  0.519E+00  0.478E+00
 13.930  0.525E+00  0.482E+00
 13.940  0.533E+00  0.488E+00
 13.950  0.542E+00  0.495E+00
 13.960  0.553E+00  0.503E+00
 13.970  0.566E+00  0.513E+00
 13.980  0.581E+00  0.523E+00
 13.990  0.598E+00  0.535E+00
 14.000  0.617E+00  0.548E+00
 14.010  0.640E+00  0.563E+00
 14.020  0.666E+00  0.580E+00
 14.030  0.696E+00  0.599E+00
 14.040  0.732E+00  0.622E+00
 14.050  0.775E+00  0.648E+00
 14.060  0.825E+00  0.678E+00
 14.070  0.883E+00  0.713E+00
 14.080  0.952E+00  0.754E+00
 14.090  0.103E+01  0.801E+00
 14.100  0.112E+01  0.854E+00
 14.110  0.122E+01  0.914E+00
 14.120  0.134E+01  0.982E+00
 14.130  0.147E+01  0.106E+01
 14.140  0.161E+01  0.114E+01
 14.150  0.176E+01  0.123E+01
 14.160  0.192E+01  0.132E+01
 14.170  0.209E+01  0.142E+01
 14.180  0.226E+01  0.152E+01
 14.190  0.244E+01  0.162E+01
 14.200  0.261E+01  0.171E+01
 14.210  0.278E+01  0.181E+01
 14.220  0.293E+01  0.190E+01
 14.230  0.308E+01  0.198E+01
 14.240  0.320E+01  0.205E+01
 14.250  0.330E+01  0.211E+01
 14.260  0.339E+01  0.215E+01
 14.270  0.344E+01  0.218E+01
 14.280  0.347E+01  0.219E+01
 14.290  0.347E+01  0.218E+01
 14.300  0.344E+01  0.216E+01
 14.310  0.339E+01  0.212E+01
 14.320  0.331E+01  0.207E+01
 14.330  0.322E+01  0.200E+01
 14.340  0.310E+01  0.193E+01
 14.350  0.298E+01  0.184E+01
 14.360  0.284E+01  0.175E+01
 14.370  0.270E+01  0.166E+01
 14.380  0.256E+01  0.157E+01
 14.390  0.243E+01  0.148E+01
 14.400  0.229E+01  0.139E+01
 14.410  0.217E+01  0.130E+01
 14.420  0.206E+01  0.123E+01
 14.430  0.196E+01  0.115E+01
 14.440  0.187E+01  0.109E+01
 14.450  0.179E+01  0.104E+01
 14.460  0.173E+01  0.990E+00
 14.470  0.167E+01  0.950E+00
 14.480  0.162E+01  0.917E+00
 14.490  0.159E+01  0.889E+00
 14.500  0.156E+01  0.865E+00
 14.510  0.153E+01  0.846E+00
 14.520  0.151E+01  0.829E+00
 14.530  0.149E+01  0.814E+00
 14.540  0.147E+01  0.801E+00
 14.550  0.145E+01  0.788E+00
 14.560  0.144E+01  0.775E+00
 14.570  0.142E+01  0.763E+00
 14.580  0.141E+01  0.751E+00
 14.590  0.140E+01  0.738E+00
 14.600  0.138E+01  0.726E+00
 14.610  0.137E+01  0.713E+00
 14.620  0.136E+01  0.701E+00
 14.630  0.135E+01  0.689E+00
 14.640  0.134E+01  0.677E+00
 14.650  0.133E+01  0.666E+00
 14.660  0.132E+01  0.656E+00
 14.670  0.131E+01  0.646E+00
 14.680  0.130E+01  0.636E+00
 14.690  0.128E+01  0.626E+00
 14.700  0.127E+01  0.616E+00
 14.710  0.125E+01  0.606E+00
 14.720  0.123E+01  0.596E+00
 14.730  0.120E+01  0.585E+00
 14.740  0.117E+01  0.574E+00
 14.750  0.114E+01  0.561E+00
 14.760  0.110E+01  0.547E+00
 14.770  0.106E+01  0.533E+00
 14.780  0.102E+01  0.517E+00
 14.790  0.970E+00  0.500E+00
 14.800  0.920E+00  0.481E+00
 14.810  0.868E+00  0.462E+00
 14.820  0.816E+00  0.441E+00
 14.830  0.763E+00  0.420E+00
 14.840  0.711E+00  0.399E+00
 14.850  0.661E+00  0.377E+00
 14.860  0.612E+00  0.356E+00
 14.870  0.566E+00  0.334E+00
 14.880  0.523E+00  0.314E+00
 14.890  0.484E+00  0.294E+00
 14.900  0.449E+00  0.276E+00
 14.910  0.418E+00  0.259E+00
 14.920  0.392E+00  0.244E+00
 14.930  0.370E+00  0.231E+00
 14.940  0.352E+00  0.220E+00
 14.950  0.339E+00  0.211E+00
 14.960  0.329E+00  0.204E+00
 14.970  0.323E+00  0.199E+00
 14.980  0.320E+00  0.195E+00
 14.990  0.320E+00  0.194E+00
 15.000  0.321E+00  0.193E+00
 15.010  0.324E+00  0.194E+00
