# E(eV)   ldos(E)   pdos(E)_1   pdos(E)_2   
 -5.000  0.000E+00  0.000E+00  0.000E+00
 -4.990  0.000E+00  0.000E+00  0.000E+00
 -4.980  0.000E+00  0.000E+00  0.000E+00
 -4.970  0.000E+00  0.000E+00  0.000E+00
 -4.960  0.000E+00  0.000E+00  0.000E+00
 -4.950  0.000E+00  0.000E+00  0.000E+00
 -4.940  0.000E+00  0.000E+00  0.000E+00
 -4.930  0.000E+00  0.000E+00  0.000E+00
 -4.920  0.000E+00  0.000E+00  0.000E+00
 -4.910  0.000E+00  0.000E+00  0.000E+00
 -4.900  0.000E+00  0.000E+00  0.000E+00
 -4.890  0.000E+00  0.000E+00  0.000E+00
 -4.880  0.000E+00  0.000E+00  0.000E+00
 -4.870  0.000E+00  0.000E+00  0.000E+00
 -4.860  0.000E+00  0.000E+00  0.000E+00
 -4.850  0.000E+00  0.000E+00  0.000E+00
 -4.840  0.000E+00  0.000E+00  0.000E+00
 -4.830  0.000E+00  0.000E+00  0.000E+00
 -4.820  0.000E+00  0.000E+00  0.000E+00
 -4.810  0.000E+00  0.000E+00  0.000E+00
 -4.800  0.000E+00  0.000E+00  0.000E+00
 -4.790  0.000E+00  0.000E+00  0.000E+00
 -4.780  0.000E+00  0.000E+00  0.000E+00
 -4.770  0.000E+00  0.000E+00  0.000E+00
 -4.760  0.000E+00  0.000E+00  0.000E+00
 -4.750  0.000E+00  0.000E+00  0.000E+00
 -4.740  0.000E+00  0.000E+00  0.000E+00
 -4.730  0.000E+00  0.000E+00  0.000E+00
 -4.720  0.000E+00  0.000E+00  0.000E+00
 -4.710  0.000E+00  0.000E+00  0.000E+00
 -4.700  0.000E+00  0.000E+00  0.000E+00
 -4.690  0.000E+00  0.000E+00  0.000E+00
 -4.680  0.000E+00  0.000E+00  0.000E+00
 -4.670  0.000E+00  0.000E+00  0.000E+00
 -4.660  0.000E+00  0.000E+00  0.000E+00
 -4.650  0.000E+00  0.000E+00  0.000E+00
 -4.640  0.000E+00  0.000E+00  0.000E+00
 -4.630  0.000E+00  0.000E+00  0.000E+00
 -4.620  0.000E+00  0.000E+00  0.000E+00
 -4.610  0.000E+00  0.000E+00  0.000E+00
 -4.600  0.000E+00  0.000E+00  0.000E+00
 -4.590  0.000E+00  0.000E+00  0.000E+00
 -4.580  0.000E+00  0.000E+00  0.000E+00
 -4.570  0.000E+00  0.000E+00  0.000E+00
 -4.560  0.000E+00  0.000E+00  0.000E+00
 -4.550  0.000E+00  0.000E+00  0.000E+00
 -4.540  0.000E+00  0.000E+00  0.000E+00
 -4.530  0.000E+00  0.000E+00  0.000E+00
 -4.520  0.000E+00  0.000E+00  0.000E+00
 -4.510  0.000E+00  0.000E+00  0.000E+00
 -4.500  0.000E+00  0.000E+00  0.000E+00
 -4.490  0.000E+00  0.000E+00  0.000E+00
 -4.480  0.000E+00  0.000E+00  0.000E+00
 -4.470  0.000E+00  0.000E+00  0.000E+00
 -4.460  0.000E+00  0.000E+00  0.000E+00
 -4.450  0.000E+00  0.000E+00  0.000E+00
 -4.440  0.000E+00  0.000E+00  0.000E+00
 -4.430  0.000E+00  0.000E+00  0.000E+00
 -4.420  0.000E+00  0.000E+00  0.000E+00
 -4.410  0.000E+00  0.000E+00  0.000E+00
 -4.400  0.000E+00  0.000E+00  0.000E+00
 -4.390  0.000E+00  0.000E+00  0.000E+00
 -4.380  0.000E+00  0.000E+00  0.000E+00
 -4.370  0.000E+00  0.000E+00  0.000E+00
 -4.360  0.000E+00  0.000E+00  0.000E+00
 -4.350  0.000E+00  0.000E+00  0.000E+00
 -4.340  0.000E+00  0.000E+00  0.000E+00
 -4.330  0.000E+00  0.000E+00  0.000E+00
 -4.320  0.000E+00  0.000E+00  0.000E+00
 -4.310  0.000E+00  0.000E+00  0.000E+00
 -4.300  0.000E+00  0.000E+00  0.000E+00
 -4.290  0.000E+00  0.000E+00  0.000E+00
 -4.280  0.000E+00  0.000E+00  0.000E+00
 -4.270  0.000E+00  0.000E+00  0.000E+00
 -4.260  0.000E+00  0.000E+00  0.000E+00
 -4.250  0.000E+00  0.000E+00  0.000E+00
 -4.240  0.000E+00  0.000E+00  0.000E+00
 -4.230  0.000E+00  0.000E+00  0.000E+00
 -4.220  0.000E+00  0.000E+00  0.000E+00
 -4.210  0.000E+00  0.000E+00  0.000E+00
 -4.200  0.000E+00  0.000E+00  0.000E+00
 -4.190  0.000E+00  0.000E+00  0.000E+00
 -4.180  0.000E+00  0.000E+00  0.000E+00
 -4.170  0.000E+00  0.000E+00  0.000E+00
 -4.160  0.000E+00  0.000E+00  0.000E+00
 -4.150  0.000E+00  0.000E+00  0.000E+00
 -4.140  0.000E+00  0.000E+00  0.000E+00
 -4.130  0.000E+00  0.000E+00  0.000E+00
 -4.120  0.000E+00  0.000E+00  0.000E+00
 -4.110  0.000E+00  0.000E+00  0.000E+00
 -4.100  0.000E+00  0.000E+00  0.000E+00
 -4.090  0.000E+00  0.000E+00  0.000E+00
 -4.080  0.000E+00  0.000E+00  0.000E+00
 -4.070  0.000E+00  0.000E+00  0.000E+00
 -4.060  0.000E+00  0.000E+00  0.000E+00
 -4.050  0.000E+00  0.000E+00  0.000E+00
 -4.040  0.000E+00  0.000E+00  0.000E+00
 -4.030  0.000E+00  0.000E+00  0.000E+00
 -4.020  0.000E+00  0.000E+00  0.000E+00
 -4.010  0.000E+00  0.000E+00  0.000E+00
 -4.000  0.000E+00  0.000E+00  0.000E+00
 -3.990  0.000E+00  0.000E+00  0.000E+00
 -3.980  0.000E+00  0.000E+00  0.000E+00
 -3.970  0.000E+00  0.000E+00  0.000E+00
 -3.960  0.000E+00  0.000E+00  0.000E+00
 -3.950  0.000E+00  0.000E+00  0.000E+00
 -3.940  0.000E+00  0.000E+00  0.000E+00
 -3.930  0.000E+00  0.000E+00  0.000E+00
 -3.920  0.000E+00  0.000E+00  0.000E+00
 -3.910  0.862E-15  0.431E-15  0.431E-15
 -3.900  0.198E-14  0.989E-15  0.989E-15
 -3.890  0.449E-14  0.224E-14  0.224E-14
 -3.880  0.108E-13  0.541E-14  0.541E-14
 -3.870  0.241E-13  0.120E-13  0.120E-13
 -3.860  0.530E-13  0.265E-13  0.265E-13
 -3.850  0.116E-12  0.581E-13  0.581E-13
 -3.840  0.250E-12  0.125E-12  0.125E-12
 -3.830  0.534E-12  0.267E-12  0.267E-12
 -3.820  0.113E-11  0.563E-12  0.563E-12
 -3.810  0.235E-11  0.117E-11  0.117E-11
 -3.800  0.485E-11  0.243E-11  0.243E-11
 -3.790  0.990E-11  0.495E-11  0.495E-11
 -3.780  0.200E-10  0.100E-10  0.100E-10
 -3.770  0.400E-10  0.200E-10  0.200E-10
 -3.760  0.790E-10  0.395E-10  0.395E-10
 -3.750  0.154E-09  0.772E-10  0.772E-10
 -3.740  0.299E-09  0.149E-09  0.149E-09
 -3.730  0.571E-09  0.286E-09  0.286E-09
 -3.720  0.108E-08  0.541E-09  0.541E-09
 -3.710  0.203E-08  0.101E-08  0.101E-08
 -3.700  0.375E-08  0.188E-08  0.188E-08
 -3.690  0.687E-08  0.344E-08  0.344E-08
 -3.680  0.125E-07  0.623E-08  0.623E-08
 -3.670  0.223E-07  0.112E-07  0.112E-07
 -3.660  0.396E-07  0.198E-07  0.198E-07
 -3.650  0.695E-07  0.348E-07  0.348E-07
 -3.640  0.121E-06  0.604E-07  0.604E-07
 -3.630  0.207E-06  0.104E-06  0.104E-06
 -3.620  0.352E-06  0.176E-06  0.176E-06
 -3.610  0.592E-06  0.296E-06  0.296E-06
 -3.600  0.984E-06  0.492E-06  0.492E-06
 -3.590  0.162E-05  0.809E-06  0.809E-06
 -3.580  0.263E-05  0.132E-05  0.132E-05
 -3.570  0.424E-05  0.212E-05  0.212E-05
 -3.560  0.675E-05  0.338E-05  0.338E-05
 -3.550  0.106E-04  0.532E-05  0.532E-05
 -3.540  0.166E-04  0.829E-05  0.829E-05
 -3.530  0.256E-04  0.128E-04  0.128E-04
 -3.520  0.390E-04  0.195E-04  0.195E-04
 -3.510  0.589E-04  0.294E-04  0.294E-04
 -3.500  0.879E-04  0.439E-04  0.439E-04
 -3.490  0.130E-03  0.649E-04  0.649E-04
 -3.480  0.190E-03  0.949E-04  0.949E-04
 -3.470  0.274E-03  0.137E-03  0.137E-03
 -3.460  0.393E-03  0.196E-03  0.196E-03
 -3.450  0.556E-03  0.278E-03  0.278E-03
 -3.440  0.779E-03  0.389E-03  0.389E-03
 -3.430  0.108E-02  0.540E-03  0.540E-03
 -3.420  0.148E-02  0.740E-03  0.740E-03
 -3.410  0.201E-02  0.100E-02  0.100E-02
 -3.400  0.270E-02  0.135E-02  0.135E-02
 -3.390  0.358E-02  0.179E-02  0.179E-02
 -3.380  0.471E-02  0.236E-02  0.236E-02
 -3.370  0.613E-02  0.306E-02  0.306E-02
 -3.360  0.789E-02  0.395E-02  0.395E-02
 -3.350  0.101E-01  0.503E-02  0.503E-02
 -3.340  0.127E-01  0.634E-02  0.634E-02
 -3.330  0.158E-01  0.792E-02  0.792E-02
 -3.320  0.196E-01  0.978E-02  0.978E-02
 -3.310  0.239E-01  0.120E-01  0.120E-01
 -3.300  0.290E-01  0.145E-01  0.145E-01
 -3.290  0.347E-01  0.174E-01  0.174E-01
 -3.280  0.412E-01  0.206E-01  0.206E-01
 -3.270  0.485E-01  0.242E-01  0.242E-01
 -3.260  0.564E-01  0.282E-01  0.282E-01
 -3.250  0.650E-01  0.325E-01  0.325E-01
 -3.240  0.742E-01  0.371E-01  0.371E-01
 -3.230  0.839E-01  0.419E-01  0.419E-01
 -3.220  0.940E-01  0.470E-01  0.470E-01
 -3.210  0.104E+00  0.521E-01  0.521E-01
 -3.200  0.115E+00  0.574E-01  0.574E-01
 -3.190  0.125E+00  0.626E-01  0.626E-01
 -3.180  0.135E+00  0.676E-01  0.676E-01
 -3.170  0.145E+00  0.725E-01  0.725E-01
 -3.160  0.154E+00  0.772E-01  0.772E-01
 -3.150  0.163E+00  0.814E-01  0.814E-01
 -3.140  0.171E+00  0.853E-01  0.853E-01
 -3.130  0.178E+00  0.888E-01  0.888E-01
 -3.120  0.183E+00  0.917E-01  0.917E-01
 -3.110  0.188E+00  0.942E-01  0.942E-01
 -3.100  0.192E+00  0.962E-01  0.962E-01
 -3.090  0.195E+00  0.977E-01  0.977E-01
 -3.080  0.197E+00  0.987E-01  0.987E-01
 -3.070  0.199E+00  0.993E-01  0.993E-01
 -3.060  0.199E+00  0.995E-01  0.995E-01
 -3.050  0.199E+00  0.994E-01  0.994E-01
 -3.040  0.198E+00  0.991E-01  0.991E-01
 -3.030  0.197E+00  0.985E-01  0.985E-01
 -3.020  0.195E+00  0.977E-01  0.977E-01
 -3.010  0.194E+00  0.969E-01  0.969E-01
 -3.000  0.192E+00  0.960E-01  0.960E-01
 -2.990  0.190E+00  0.950E-01  0.950E-01
 -2.980  0.188E+00  0.941E-01  0.941E-01
 -2.970  0.186E+00  0.932E-01  0.932E-01
 -2.960  0.185E+00  0.924E-01  0.924E-01
 -2.950  0.183E+00  0.916E-01  0.916E-01
 -2.940  0.182E+00  0.909E-01  0.909E-01
 -2.930  0.181E+00  0.903E-01  0.903E-01
 -2.920  0.180E+00  0.898E-01  0.898E-01
 -2.910  0.179E+00  0.893E-01  0.893E-01
 -2.900  0.178E+00  0.889E-01  0.889E-01
 -2.890  0.177E+00  0.886E-01  0.886E-01
 -2.880  0.177E+00  0.883E-01  0.883E-01
 -2.870  0.176E+00  0.881E-01  0.881E-01
 -2.860  0.176E+00  0.880E-01  0.880E-01
 -2.850  0.176E+00  0.878E-01  0.878E-01
 -2.840  0.176E+00  0.878E-01  0.878E-01
 -2.830  0.176E+00  0.878E-01  0.878E-01
 -2.820  0.176E+00  0.878E-01  0.878E-01
 -2.810  0.176E+00  0.879E-01  0.879E-01
 -2.800  0.176E+00  0.880E-01  0.880E-01
 -2.790  0.177E+00  0.883E-01  0.883E-01
 -2.780  0.177E+00  0.886E-01  0.886E-01
 -2.770  0.178E+00  0.892E-01  0.892E-01
 -2.760  0.180E+00  0.899E-01  0.899E-01
 -2.750  0.182E+00  0.909E-01  0.909E-01
 -2.740  0.184E+00  0.922E-01  0.922E-01
 -2.730  0.188E+00  0.939E-01  0.939E-01
 -2.720  0.192E+00  0.962E-01  0.962E-01
 -2.710  0.198E+00  0.992E-01  0.992E-01
 -2.700  0.206E+00  0.103E+00  0.103E+00
 -2.690  0.216E+00  0.108E+00  0.108E+00
 -2.680  0.229E+00  0.114E+00  0.114E+00
 -2.670  0.244E+00  0.122E+00  0.122E+00
 -2.660  0.264E+00  0.132E+00  0.132E+00
 -2.650  0.287E+00  0.143E+00  0.143E+00
 -2.640  0.315E+00  0.157E+00  0.157E+00
 -2.630  0.348E+00  0.174E+00  0.174E+00
 -2.620  0.387E+00  0.194E+00  0.194E+00
 -2.610  0.432E+00  0.216E+00  0.216E+00
 -2.600  0.484E+00  0.242E+00  0.242E+00
 -2.590  0.542E+00  0.271E+00  0.271E+00
 -2.580  0.606E+00  0.303E+00  0.303E+00
 -2.570  0.676E+00  0.338E+00  0.338E+00
 -2.560  0.751E+00  0.376E+00  0.376E+00
 -2.550  0.831E+00  0.415E+00  0.415E+00
 -2.540  0.914E+00  0.457E+00  0.457E+00
 -2.530  0.998E+00  0.499E+00  0.499E+00
 -2.520  0.108E+01  0.542E+00  0.542E+00
 -2.510  0.117E+01  0.584E+00  0.584E+00
 -2.500  0.125E+01  0.624E+00  0.624E+00
 -2.490  0.132E+01  0.661E+00  0.661E+00
 -2.480  0.139E+01  0.696E+00  0.696E+00
 -2.470  0.145E+01  0.726E+00  0.726E+00
 -2.460  0.150E+01  0.751E+00  0.751E+00
 -2.450  0.154E+01  0.771E+00  0.771E+00
 -2.440  0.157E+01  0.786E+00  0.786E+00
 -2.430  0.159E+01  0.795E+00  0.795E+00
 -2.420  0.160E+01  0.798E+00  0.798E+00
 -2.410  0.159E+01  0.797E+00  0.797E+00
 -2.400  0.158E+01  0.791E+00  0.791E+00
 -2.390  0.156E+01  0.781E+00  0.781E+00
 -2.380  0.154E+01  0.768E+00  0.768E+00
 -2.370  0.151E+01  0.753E+00  0.753E+00
 -2.360  0.147E+01  0.737E+00  0.737E+00
 -2.350  0.144E+01  0.722E+00  0.722E+00
 -2.340  0.141E+01  0.707E+00  0.707E+00
 -2.330  0.139E+01  0.694E+00  0.694E+00
 -2.320  0.137E+01  0.684E+00  0.684E+00
 -2.310  0.135E+01  0.677E+00  0.677E+00
 -2.300  0.135E+01  0.674E+00  0.674E+00
 -2.290  0.135E+01  0.674E+00  0.674E+00
 -2.280  0.136E+01  0.679E+00  0.679E+00
 -2.270  0.137E+01  0.687E+00  0.687E+00
 -2.260  0.140E+01  0.699E+00  0.699E+00
 -2.250  0.143E+01  0.715E+00  0.715E+00
 -2.240  0.147E+01  0.733E+00  0.733E+00
 -2.230  0.151E+01  0.753E+00  0.753E+00
 -2.220  0.155E+01  0.774E+00  0.774E+00
 -2.210  0.159E+01  0.796E+00  0.796E+00
 -2.200  0.164E+01  0.818E+00  0.818E+00
 -2.190  0.168E+01  0.840E+00  0.840E+00
 -2.180  0.172E+01  0.860E+00  0.860E+00
 -2.170  0.176E+01  0.878E+00  0.878E+00
 -2.160  0.179E+01  0.894E+00  0.894E+00
 -2.150  0.182E+01  0.908E+00  0.908E+00
 -2.140  0.184E+01  0.920E+00  0.920E+00
 -2.130  0.186E+01  0.929E+00  0.929E+00
 -2.120  0.187E+01  0.935E+00  0.935E+00
 -2.110  0.188E+01  0.940E+00  0.940E+00
 -2.100  0.189E+01  0.943E+00  0.943E+00
 -2.090  0.189E+01  0.945E+00  0.945E+00
 -2.080  0.189E+01  0.947E+00  0.947E+00
 -2.070  0.190E+01  0.948E+00  0.948E+00
 -2.060  0.190E+01  0.949E+00  0.949E+00
 -2.050  0.190E+01  0.951E+00  0.951E+00
 -2.040  0.191E+01  0.955E+00  0.955E+00
 -2.030  0.192E+01  0.960E+00  0.960E+00
 -2.020  0.193E+01  0.966E+00  0.966E+00
 -2.010  0.195E+01  0.974E+00  0.974E+00
 -2.000  0.197E+01  0.983E+00  0.983E+00
 -1.990  0.199E+01  0.993E+00  0.993E+00
 -1.980  0.201E+01  0.100E+01  0.100E+01
 -1.970  0.203E+01  0.102E+01  0.102E+01
 -1.960  0.206E+01  0.103E+01  0.103E+01
 -1.950  0.208E+01  0.104E+01  0.104E+01
 -1.940  0.210E+01  0.105E+01  0.105E+01
 -1.930  0.211E+01  0.105E+01  0.105E+01
 -1.920  0.212E+01  0.106E+01  0.106E+01
 -1.910  0.212E+01  0.106E+01  0.106E+01
 -1.900  0.212E+01  0.106E+01  0.106E+01
 -1.890  0.211E+01  0.105E+01  0.105E+01
 -1.880  0.209E+01  0.104E+01  0.104E+01
 -1.870  0.206E+01  0.103E+01  0.103E+01
 -1.860  0.202E+01  0.101E+01  0.101E+01
 -1.850  0.197E+01  0.984E+00  0.984E+00
 -1.840  0.191E+01  0.956E+00  0.956E+00
 -1.830  0.185E+01  0.923E+00  0.923E+00
 -1.820  0.177E+01  0.886E+00  0.886E+00
 -1.810  0.169E+01  0.846E+00  0.846E+00
 -1.800  0.160E+01  0.802E+00  0.802E+00
 -1.790  0.151E+01  0.755E+00  0.755E+00
 -1.780  0.141E+01  0.706E+00  0.706E+00
 -1.770  0.131E+01  0.654E+00  0.654E+00
 -1.760  0.120E+01  0.601E+00  0.601E+00
 -1.750  0.109E+01  0.546E+00  0.546E+00
 -1.740  0.981E+00  0.491E+00  0.491E+00
 -1.730  0.870E+00  0.435E+00  0.435E+00
 -1.720  0.759E+00  0.380E+00  0.380E+00
 -1.710  0.651E+00  0.325E+00  0.325E+00
 -1.700  0.545E+00  0.272E+00  0.272E+00
 -1.690  0.443E+00  0.222E+00  0.222E+00
 -1.680  0.347E+00  0.174E+00  0.174E+00
 -1.670  0.258E+00  0.129E+00  0.129E+00
 -1.660  0.175E+00  0.877E-01  0.877E-01
 -1.650  0.102E+00  0.508E-01  0.508E-01
 -1.640  0.367E-01  0.183E-01  0.183E-01
 -1.630 -0.190E-01 -0.949E-02 -0.949E-02
 -1.620 -0.652E-01 -0.326E-01 -0.326E-01
 -1.610 -0.102E+00 -0.511E-01 -0.511E-01
 -1.600 -0.130E+00 -0.651E-01 -0.651E-01
 -1.590 -0.150E+00 -0.749E-01 -0.749E-01
 -1.580 -0.162E+00 -0.809E-01 -0.809E-01
 -1.570 -0.167E+00 -0.837E-01 -0.837E-01
 -1.560 -0.167E+00 -0.835E-01 -0.835E-01
 -1.550 -0.162E+00 -0.811E-01 -0.811E-01
 -1.540 -0.154E+00 -0.769E-01 -0.769E-01
 -1.530 -0.143E+00 -0.713E-01 -0.713E-01
 -1.520 -0.130E+00 -0.649E-01 -0.649E-01
 -1.510 -0.116E+00 -0.580E-01 -0.580E-01
 -1.500 -0.102E+00 -0.510E-01 -0.510E-01
 -1.490 -0.884E-01 -0.442E-01 -0.442E-01
 -1.480 -0.753E-01 -0.377E-01 -0.377E-01
 -1.470 -0.633E-01 -0.317E-01 -0.317E-01
 -1.460 -0.525E-01 -0.262E-01 -0.262E-01
 -1.450 -0.429E-01 -0.215E-01 -0.215E-01
 -1.440 -0.346E-01 -0.173E-01 -0.173E-01
 -1.430 -0.276E-01 -0.138E-01 -0.138E-01
 -1.420 -0.217E-01 -0.108E-01 -0.108E-01
 -1.410 -0.168E-01 -0.841E-02 -0.841E-02
 -1.400 -0.129E-01 -0.645E-02 -0.645E-02
 -1.390 -0.977E-02 -0.488E-02 -0.488E-02
 -1.380 -0.731E-02 -0.365E-02 -0.365E-02
 -1.370 -0.540E-02 -0.270E-02 -0.270E-02
 -1.360 -0.394E-02 -0.197E-02 -0.197E-02
 -1.350 -0.285E-02 -0.142E-02 -0.142E-02
 -1.340 -0.203E-02 -0.102E-02 -0.102E-02
 -1.330 -0.143E-02 -0.715E-03 -0.715E-03
 -1.320 -0.997E-03 -0.498E-03 -0.498E-03
 -1.310 -0.687E-03 -0.343E-03 -0.343E-03
 -1.300 -0.467E-03 -0.234E-03 -0.234E-03
 -1.290 -0.314E-03 -0.157E-03 -0.157E-03
 -1.280 -0.209E-03 -0.105E-03 -0.105E-03
 -1.270 -0.138E-03 -0.688E-04 -0.688E-04
 -1.260 -0.895E-04 -0.447E-04 -0.447E-04
 -1.250 -0.575E-04 -0.288E-04 -0.288E-04
 -1.240 -0.366E-04 -0.183E-04 -0.183E-04
 -1.230 -0.230E-04 -0.115E-04 -0.115E-04
 -1.220 -0.143E-04 -0.714E-05 -0.714E-05
 -1.210 -0.877E-05 -0.438E-05 -0.438E-05
 -1.200 -0.533E-05 -0.266E-05 -0.266E-05
 -1.190 -0.320E-05 -0.160E-05 -0.160E-05
 -1.180 -0.190E-05 -0.951E-06 -0.951E-06
 -1.170 -0.112E-05 -0.558E-06 -0.558E-06
 -1.160 -0.648E-06 -0.324E-06 -0.324E-06
 -1.150 -0.372E-06 -0.186E-06 -0.186E-06
 -1.140 -0.210E-06 -0.105E-06 -0.105E-06
 -1.130 -0.117E-06 -0.586E-07 -0.586E-07
 -1.120 -0.640E-07 -0.320E-07 -0.320E-07
 -1.110 -0.340E-07 -0.170E-07 -0.170E-07
 -1.100 -0.171E-07 -0.854E-08 -0.854E-08
 -1.090 -0.752E-08 -0.376E-08 -0.376E-08
 -1.080  0.000E+00  0.000E+00  0.000E+00
 -1.070  0.000E+00  0.000E+00  0.000E+00
 -1.060  0.000E+00  0.000E+00  0.000E+00
 -1.050  0.000E+00  0.000E+00  0.000E+00
 -1.040  0.000E+00  0.000E+00  0.000E+00
 -1.030  0.000E+00  0.000E+00  0.000E+00
 -1.020  0.000E+00  0.000E+00  0.000E+00
 -1.010  0.000E+00  0.000E+00  0.000E+00
 -1.000  0.000E+00  0.000E+00  0.000E+00
 -0.990  0.000E+00  0.000E+00  0.000E+00
 -0.980  0.000E+00  0.000E+00  0.000E+00
 -0.970  0.000E+00  0.000E+00  0.000E+00
 -0.960  0.000E+00  0.000E+00  0.000E+00
 -0.950  0.000E+00  0.000E+00  0.000E+00
 -0.940  0.000E+00  0.000E+00  0.000E+00
 -0.930  0.000E+00  0.000E+00  0.000E+00
 -0.920  0.000E+00  0.000E+00  0.000E+00
 -0.910  0.000E+00  0.000E+00  0.000E+00
 -0.900  0.000E+00  0.000E+00  0.000E+00
 -0.890  0.000E+00  0.000E+00  0.000E+00
 -0.880  0.000E+00  0.000E+00  0.000E+00
 -0.870  0.000E+00  0.000E+00  0.000E+00
 -0.860  0.000E+00  0.000E+00  0.000E+00
 -0.850  0.000E+00  0.000E+00  0.000E+00
 -0.840  0.000E+00  0.000E+00  0.000E+00
 -0.830  0.000E+00  0.000E+00  0.000E+00
 -0.820  0.000E+00  0.000E+00  0.000E+00
 -0.810  0.000E+00  0.000E+00  0.000E+00
 -0.800  0.000E+00  0.000E+00  0.000E+00
 -0.790  0.000E+00  0.000E+00  0.000E+00
 -0.780  0.000E+00  0.000E+00  0.000E+00
 -0.770  0.000E+00  0.000E+00  0.000E+00
 -0.760  0.000E+00  0.000E+00  0.000E+00
 -0.750  0.000E+00  0.000E+00  0.000E+00
 -0.740  0.000E+00  0.000E+00  0.000E+00
 -0.730  0.000E+00  0.000E+00  0.000E+00
 -0.720  0.000E+00  0.000E+00  0.000E+00
 -0.710  0.000E+00  0.000E+00  0.000E+00
 -0.700  0.000E+00  0.000E+00  0.000E+00
 -0.690  0.000E+00  0.000E+00  0.000E+00
 -0.680  0.000E+00  0.000E+00  0.000E+00
 -0.670  0.000E+00  0.000E+00  0.000E+00
 -0.660  0.000E+00  0.000E+00  0.000E+00
 -0.650  0.000E+00  0.000E+00  0.000E+00
 -0.640  0.000E+00  0.000E+00  0.000E+00
 -0.630  0.000E+00  0.000E+00  0.000E+00
 -0.620  0.000E+00  0.000E+00  0.000E+00
 -0.610  0.000E+00  0.000E+00  0.000E+00
 -0.600  0.000E+00  0.000E+00  0.000E+00
 -0.590  0.000E+00  0.000E+00  0.000E+00
 -0.580  0.000E+00  0.000E+00  0.000E+00
 -0.570  0.000E+00  0.000E+00  0.000E+00
 -0.560  0.000E+00  0.000E+00  0.000E+00
 -0.550  0.316E-16  0.158E-16  0.158E-16
 -0.540  0.941E-16  0.470E-16  0.470E-16
 -0.530  0.233E-15  0.117E-15  0.117E-15
 -0.520  0.534E-15  0.267E-15  0.267E-15
 -0.510  0.120E-14  0.601E-15  0.601E-15
 -0.500  0.267E-14  0.133E-14  0.133E-14
 -0.490  0.584E-14  0.292E-14  0.292E-14
 -0.480  0.126E-13  0.632E-14  0.632E-14
 -0.470  0.271E-13  0.135E-13  0.135E-13
 -0.460  0.574E-13  0.287E-13  0.287E-13
 -0.450  0.120E-12  0.601E-13  0.601E-13
 -0.440  0.249E-12  0.125E-12  0.125E-12
 -0.430  0.511E-12  0.255E-12  0.255E-12
 -0.420  0.104E-11  0.518E-12  0.518E-12
 -0.410  0.208E-11  0.104E-11  0.104E-11
 -0.400  0.412E-11  0.206E-11  0.206E-11
 -0.390  0.809E-11  0.404E-11  0.404E-11
 -0.380  0.157E-10  0.785E-11  0.785E-11
 -0.370  0.301E-10  0.151E-10  0.151E-10
 -0.360  0.573E-10  0.286E-10  0.286E-10
 -0.350  0.108E-09  0.538E-10  0.538E-10
 -0.340  0.200E-09  0.100E-09  0.100E-09
 -0.330  0.368E-09  0.184E-09  0.184E-09
 -0.320  0.669E-09  0.334E-09  0.334E-09
 -0.310  0.120E-08  0.602E-09  0.602E-09
 -0.300  0.214E-08  0.107E-08  0.107E-08
 -0.290  0.377E-08  0.188E-08  0.188E-08
 -0.280  0.656E-08  0.328E-08  0.328E-08
 -0.270  0.113E-07  0.565E-08  0.565E-08
 -0.260  0.193E-07  0.963E-08  0.963E-08
 -0.250  0.324E-07  0.162E-07  0.162E-07
 -0.240  0.541E-07  0.270E-07  0.270E-07
 -0.230  0.892E-07  0.446E-07  0.446E-07
 -0.220  0.145E-06  0.727E-07  0.727E-07
 -0.210  0.235E-06  0.117E-06  0.117E-06
 -0.200  0.374E-06  0.187E-06  0.187E-06
 -0.190  0.591E-06  0.295E-06  0.295E-06
 -0.180  0.922E-06  0.461E-06  0.461E-06
 -0.170  0.142E-05  0.712E-06  0.712E-06
 -0.160  0.218E-05  0.109E-05  0.109E-05
 -0.150  0.329E-05  0.164E-05  0.164E-05
 -0.140  0.491E-05  0.246E-05  0.246E-05
 -0.130  0.726E-05  0.363E-05  0.363E-05
 -0.120  0.106E-04  0.531E-05  0.531E-05
 -0.110  0.154E-04  0.768E-05  0.768E-05
 -0.100  0.220E-04  0.110E-04  0.110E-04
 -0.090  0.311E-04  0.156E-04  0.156E-04
 -0.080  0.436E-04  0.218E-04  0.218E-04
 -0.070  0.604E-04  0.302E-04  0.302E-04
 -0.060  0.827E-04  0.413E-04  0.413E-04
 -0.050  0.112E-03  0.560E-04  0.560E-04
 -0.040  0.150E-03  0.752E-04  0.752E-04
 -0.030  0.199E-03  0.997E-04  0.997E-04
 -0.020  0.262E-03  0.131E-03  0.131E-03
 -0.010  0.340E-03  0.170E-03  0.170E-03
  0.000  0.437E-03  0.219E-03  0.219E-03
  0.010  0.557E-03  0.278E-03  0.278E-03
  0.020  0.701E-03  0.351E-03  0.351E-03
  0.030  0.874E-03  0.437E-03  0.437E-03
  0.040  0.108E-02  0.540E-03  0.540E-03
  0.050  0.132E-02  0.661E-03  0.661E-03
  0.060  0.160E-02  0.801E-03  0.801E-03
  0.070  0.193E-02  0.963E-03  0.963E-03
  0.080  0.230E-02  0.115E-02  0.115E-02
  0.090  0.272E-02  0.136E-02  0.136E-02
  0.100  0.320E-02  0.160E-02  0.160E-02
  0.110  0.373E-02  0.187E-02  0.187E-02
  0.120  0.434E-02  0.217E-02  0.217E-02
  0.130  0.502E-02  0.251E-02  0.251E-02
  0.140  0.578E-02  0.289E-02  0.289E-02
  0.150  0.665E-02  0.332E-02  0.332E-02
  0.160  0.763E-02  0.381E-02  0.381E-02
  0.170  0.875E-02  0.437E-02  0.437E-02
  0.180  0.100E-01  0.502E-02  0.502E-02
  0.190  0.115E-01  0.575E-02  0.575E-02
  0.200  0.132E-01  0.660E-02  0.660E-02
  0.210  0.152E-01  0.758E-02  0.758E-02
  0.220  0.174E-01  0.870E-02  0.870E-02
  0.230  0.200E-01  0.999E-02  0.999E-02
  0.240  0.229E-01  0.115E-01  0.115E-01
  0.250  0.262E-01  0.131E-01  0.131E-01
  0.260  0.300E-01  0.150E-01  0.150E-01
  0.270  0.341E-01  0.170E-01  0.170E-01
  0.280  0.386E-01  0.193E-01  0.193E-01
  0.290  0.435E-01  0.217E-01  0.217E-01
  0.300  0.487E-01  0.243E-01  0.243E-01
  0.310  0.541E-01  0.271E-01  0.271E-01
  0.320  0.597E-01  0.299E-01  0.299E-01
  0.330  0.654E-01  0.327E-01  0.327E-01
  0.340  0.710E-01  0.355E-01  0.355E-01
  0.350  0.765E-01  0.382E-01  0.382E-01
  0.360  0.816E-01  0.408E-01  0.408E-01
  0.370  0.863E-01  0.432E-01  0.432E-01
  0.380  0.905E-01  0.452E-01  0.452E-01
  0.390  0.940E-01  0.470E-01  0.470E-01
  0.400  0.968E-01  0.484E-01  0.484E-01
  0.410  0.988E-01  0.494E-01  0.494E-01
  0.420  0.999E-01  0.499E-01  0.499E-01
  0.430  0.100E+00  0.501E-01  0.501E-01
  0.440  0.997E-01  0.498E-01  0.498E-01
  0.450  0.984E-01  0.492E-01  0.492E-01
  0.460  0.964E-01  0.482E-01  0.482E-01
  0.470  0.939E-01  0.469E-01  0.469E-01
  0.480  0.908E-01  0.454E-01  0.454E-01
  0.490  0.874E-01  0.437E-01  0.437E-01
  0.500  0.838E-01  0.419E-01  0.419E-01
  0.510  0.801E-01  0.400E-01  0.400E-01
  0.520  0.763E-01  0.382E-01  0.382E-01
  0.530  0.726E-01  0.363E-01  0.363E-01
  0.540  0.691E-01  0.346E-01  0.346E-01
  0.550  0.659E-01  0.329E-01  0.329E-01
  0.560  0.629E-01  0.314E-01  0.314E-01
  0.570  0.602E-01  0.301E-01  0.301E-01
  0.580  0.578E-01  0.289E-01  0.289E-01
  0.590  0.558E-01  0.279E-01  0.279E-01
  0.600  0.541E-01  0.270E-01  0.270E-01
  0.610  0.526E-01  0.263E-01  0.263E-01
  0.620  0.515E-01  0.257E-01  0.257E-01
  0.630  0.505E-01  0.253E-01  0.253E-01
  0.640  0.498E-01  0.249E-01  0.249E-01
  0.650  0.492E-01  0.246E-01  0.246E-01
  0.660  0.488E-01  0.244E-01  0.244E-01
  0.670  0.484E-01  0.242E-01  0.242E-01
  0.680  0.482E-01  0.241E-01  0.241E-01
  0.690  0.481E-01  0.240E-01  0.240E-01
  0.700  0.480E-01  0.240E-01  0.240E-01
  0.710  0.479E-01  0.240E-01  0.240E-01
  0.720  0.479E-01  0.240E-01  0.240E-01
  0.730  0.479E-01  0.240E-01  0.240E-01
  0.740  0.480E-01  0.240E-01  0.240E-01
  0.750  0.481E-01  0.240E-01  0.240E-01
  0.760  0.482E-01  0.241E-01  0.241E-01
  0.770  0.483E-01  0.242E-01  0.242E-01
  0.780  0.485E-01  0.243E-01  0.243E-01
  0.790  0.487E-01  0.244E-01  0.244E-01
  0.800  0.490E-01  0.245E-01  0.245E-01
  0.810  0.493E-01  0.246E-01  0.246E-01
  0.820  0.496E-01  0.248E-01  0.248E-01
  0.830  0.500E-01  0.250E-01  0.250E-01
  0.840  0.504E-01  0.252E-01  0.252E-01
  0.850  0.508E-01  0.254E-01  0.254E-01
  0.860  0.513E-01  0.257E-01  0.257E-01
  0.870  0.519E-01  0.259E-01  0.259E-01
  0.880  0.524E-01  0.262E-01  0.262E-01
  0.890  0.529E-01  0.265E-01  0.265E-01
  0.900  0.535E-01  0.267E-01  0.267E-01
  0.910  0.540E-01  0.270E-01  0.270E-01
  0.920  0.545E-01  0.272E-01  0.272E-01
  0.930  0.549E-01  0.274E-01  0.274E-01
  0.940  0.552E-01  0.276E-01  0.276E-01
  0.950  0.554E-01  0.277E-01  0.277E-01
  0.960  0.554E-01  0.277E-01  0.277E-01
  0.970  0.554E-01  0.277E-01  0.277E-01
  0.980  0.551E-01  0.275E-01  0.275E-01
  0.990  0.546E-01  0.273E-01  0.273E-01
  1.000  0.540E-01  0.270E-01  0.270E-01
  1.010  0.531E-01  0.266E-01  0.266E-01
  1.020  0.521E-01  0.260E-01  0.260E-01
  1.030  0.509E-01  0.254E-01  0.254E-01
  1.040  0.494E-01  0.247E-01  0.247E-01
  1.050  0.479E-01  0.239E-01  0.239E-01
  1.060  0.462E-01  0.231E-01  0.231E-01
  1.070  0.444E-01  0.222E-01  0.222E-01
  1.080  0.426E-01  0.213E-01  0.213E-01
  1.090  0.408E-01  0.204E-01  0.204E-01
  1.100  0.390E-01  0.195E-01  0.195E-01
  1.110  0.373E-01  0.187E-01  0.187E-01
  1.120  0.357E-01  0.179E-01  0.179E-01
  1.130  0.342E-01  0.171E-01  0.171E-01
  1.140  0.329E-01  0.165E-01  0.165E-01
  1.150  0.318E-01  0.159E-01  0.159E-01
  1.160  0.309E-01  0.154E-01  0.154E-01
  1.170  0.302E-01  0.151E-01  0.151E-01
  1.180  0.296E-01  0.148E-01  0.148E-01
  1.190  0.293E-01  0.146E-01  0.146E-01
  1.200  0.291E-01  0.145E-01  0.145E-01
  1.210  0.291E-01  0.145E-01  0.145E-01
  1.220  0.292E-01  0.146E-01  0.146E-01
  1.230  0.294E-01  0.147E-01  0.147E-01
  1.240  0.298E-01  0.149E-01  0.149E-01
  1.250  0.302E-01  0.151E-01  0.151E-01
  1.260  0.307E-01  0.153E-01  0.153E-01
  1.270  0.312E-01  0.156E-01  0.156E-01
  1.280  0.317E-01  0.158E-01  0.158E-01
  1.290  0.322E-01  0.161E-01  0.161E-01
  1.300  0.327E-01  0.164E-01  0.164E-01
  1.310  0.332E-01  0.166E-01  0.166E-01
  1.320  0.337E-01  0.169E-01  0.169E-01
  1.330  0.342E-01  0.171E-01  0.171E-01
  1.340  0.347E-01  0.173E-01  0.173E-01
  1.350  0.351E-01  0.175E-01  0.175E-01
  1.360  0.355E-01  0.178E-01  0.178E-01
  1.370  0.359E-01  0.179E-01  0.179E-01
  1.380  0.363E-01  0.181E-01  0.181E-01
  1.390  0.366E-01  0.183E-01  0.183E-01
  1.400  0.369E-01  0.185E-01  0.185E-01
  1.410  0.372E-01  0.186E-01  0.186E-01
  1.420  0.375E-01  0.188E-01  0.188E-01
  1.430  0.378E-01  0.189E-01  0.189E-01
  1.440  0.381E-01  0.191E-01  0.191E-01
  1.450  0.384E-01  0.192E-01  0.192E-01
  1.460  0.387E-01  0.193E-01  0.193E-01
  1.470  0.389E-01  0.195E-01  0.195E-01
  1.480  0.392E-01  0.196E-01  0.196E-01
  1.490  0.395E-01  0.197E-01  0.197E-01
  1.500  0.397E-01  0.199E-01  0.199E-01
  1.510  0.400E-01  0.200E-01  0.200E-01
  1.520  0.402E-01  0.201E-01  0.201E-01
  1.530  0.404E-01  0.202E-01  0.202E-01
  1.540  0.407E-01  0.203E-01  0.203E-01
  1.550  0.409E-01  0.205E-01  0.205E-01
  1.560  0.412E-01  0.206E-01  0.206E-01
  1.570  0.414E-01  0.207E-01  0.207E-01
  1.580  0.417E-01  0.208E-01  0.208E-01
  1.590  0.419E-01  0.209E-01  0.209E-01
  1.600  0.421E-01  0.211E-01  0.211E-01
  1.610  0.424E-01  0.212E-01  0.212E-01
  1.620  0.426E-01  0.213E-01  0.213E-01
  1.630  0.428E-01  0.214E-01  0.214E-01
  1.640  0.431E-01  0.215E-01  0.215E-01
  1.650  0.433E-01  0.216E-01  0.216E-01
  1.660  0.435E-01  0.218E-01  0.218E-01
  1.670  0.438E-01  0.219E-01  0.219E-01
  1.680  0.440E-01  0.220E-01  0.220E-01
  1.690  0.442E-01  0.221E-01  0.221E-01
  1.700  0.445E-01  0.222E-01  0.222E-01
  1.710  0.447E-01  0.223E-01  0.223E-01
  1.720  0.449E-01  0.225E-01  0.225E-01
  1.730  0.451E-01  0.226E-01  0.226E-01
  1.740  0.454E-01  0.227E-01  0.227E-01
  1.750  0.456E-01  0.228E-01  0.228E-01
  1.760  0.458E-01  0.229E-01  0.229E-01
  1.770  0.461E-01  0.230E-01  0.230E-01
  1.780  0.463E-01  0.232E-01  0.232E-01
  1.790  0.465E-01  0.233E-01  0.233E-01
  1.800  0.468E-01  0.234E-01  0.234E-01
  1.810  0.470E-01  0.235E-01  0.235E-01
  1.820  0.472E-01  0.236E-01  0.236E-01
  1.830  0.475E-01  0.237E-01  0.237E-01
  1.840  0.477E-01  0.239E-01  0.239E-01
  1.850  0.479E-01  0.240E-01  0.240E-01
  1.860  0.482E-01  0.241E-01  0.241E-01
  1.870  0.484E-01  0.242E-01  0.242E-01
  1.880  0.487E-01  0.243E-01  0.243E-01
  1.890  0.489E-01  0.245E-01  0.245E-01
  1.900  0.491E-01  0.246E-01  0.246E-01
  1.910  0.494E-01  0.247E-01  0.247E-01
  1.920  0.496E-01  0.248E-01  0.248E-01
  1.930  0.499E-01  0.249E-01  0.249E-01
  1.940  0.501E-01  0.251E-01  0.251E-01
  1.950  0.504E-01  0.252E-01  0.252E-01
  1.960  0.506E-01  0.253E-01  0.253E-01
  1.970  0.509E-01  0.254E-01  0.254E-01
  1.980  0.511E-01  0.256E-01  0.256E-01
  1.990  0.514E-01  0.257E-01  0.257E-01
  2.000  0.516E-01  0.258E-01  0.258E-01
  2.010  0.519E-01  0.259E-01  0.259E-01
  2.020  0.522E-01  0.261E-01  0.261E-01
  2.030  0.524E-01  0.262E-01  0.262E-01
  2.040  0.527E-01  0.263E-01  0.263E-01
  2.050  0.530E-01  0.265E-01  0.265E-01
  2.060  0.532E-01  0.266E-01  0.266E-01
  2.070  0.535E-01  0.267E-01  0.267E-01
  2.080  0.538E-01  0.269E-01  0.269E-01
  2.090  0.540E-01  0.270E-01  0.270E-01
  2.100  0.543E-01  0.272E-01  0.272E-01
  2.110  0.546E-01  0.273E-01  0.273E-01
  2.120  0.549E-01  0.274E-01  0.274E-01
  2.130  0.552E-01  0.276E-01  0.276E-01
  2.140  0.555E-01  0.277E-01  0.277E-01
  2.150  0.557E-01  0.279E-01  0.279E-01
  2.160  0.560E-01  0.280E-01  0.280E-01
  2.170  0.563E-01  0.282E-01  0.282E-01
  2.180  0.566E-01  0.283E-01  0.283E-01
  2.190  0.569E-01  0.285E-01  0.285E-01
  2.200  0.572E-01  0.286E-01  0.286E-01
  2.210  0.576E-01  0.288E-01  0.288E-01
  2.220  0.579E-01  0.289E-01  0.289E-01
  2.230  0.582E-01  0.291E-01  0.291E-01
  2.240  0.585E-01  0.293E-01  0.293E-01
  2.250  0.588E-01  0.294E-01  0.294E-01
  2.260  0.592E-01  0.296E-01  0.296E-01
  2.270  0.595E-01  0.298E-01  0.298E-01
  2.280  0.598E-01  0.299E-01  0.299E-01
  2.290  0.602E-01  0.301E-01  0.301E-01
  2.300  0.605E-01  0.303E-01  0.303E-01
  2.310  0.609E-01  0.304E-01  0.304E-01
  2.320  0.612E-01  0.306E-01  0.306E-01
  2.330  0.616E-01  0.308E-01  0.308E-01
  2.340  0.619E-01  0.310E-01  0.310E-01
  2.350  0.623E-01  0.311E-01  0.311E-01
  2.360  0.626E-01  0.313E-01  0.313E-01
  2.370  0.630E-01  0.315E-01  0.315E-01
  2.380  0.633E-01  0.316E-01  0.316E-01
  2.390  0.636E-01  0.318E-01  0.318E-01
  2.400  0.639E-01  0.319E-01  0.319E-01
  2.410  0.641E-01  0.321E-01  0.321E-01
  2.420  0.643E-01  0.322E-01  0.322E-01
  2.430  0.645E-01  0.322E-01  0.322E-01
  2.440  0.646E-01  0.323E-01  0.323E-01
  2.450  0.646E-01  0.323E-01  0.323E-01
  2.460  0.644E-01  0.322E-01  0.322E-01
  2.470  0.642E-01  0.321E-01  0.321E-01
  2.480  0.638E-01  0.319E-01  0.319E-01
  2.490  0.632E-01  0.316E-01  0.316E-01
  2.500  0.624E-01  0.312E-01  0.312E-01
  2.510  0.614E-01  0.307E-01  0.307E-01
  2.520  0.602E-01  0.301E-01  0.301E-01
  2.530  0.587E-01  0.293E-01  0.293E-01
  2.540  0.569E-01  0.284E-01  0.284E-01
  2.550  0.548E-01  0.274E-01  0.274E-01
  2.560  0.524E-01  0.262E-01  0.262E-01
  2.570  0.497E-01  0.249E-01  0.249E-01
  2.580  0.468E-01  0.234E-01  0.234E-01
  2.590  0.436E-01  0.218E-01  0.218E-01
  2.600  0.402E-01  0.201E-01  0.201E-01
  2.610  0.366E-01  0.183E-01  0.183E-01
  2.620  0.328E-01  0.164E-01  0.164E-01
  2.630  0.290E-01  0.145E-01  0.145E-01
  2.640  0.252E-01  0.126E-01  0.126E-01
  2.650  0.214E-01  0.107E-01  0.107E-01
  2.660  0.177E-01  0.883E-02  0.883E-02
  2.670  0.141E-01  0.706E-02  0.706E-02
  2.680  0.108E-01  0.538E-02  0.538E-02
  2.690  0.768E-02  0.384E-02  0.384E-02
  2.700  0.488E-02  0.244E-02  0.244E-02
  2.710  0.241E-02  0.120E-02  0.120E-02
  2.720  0.275E-03  0.138E-03  0.138E-03
  2.730 -0.151E-02 -0.755E-03 -0.755E-03
  2.740 -0.295E-02 -0.147E-02 -0.147E-02
  2.750 -0.406E-02 -0.203E-02 -0.203E-02
  2.760 -0.486E-02 -0.243E-02 -0.243E-02
  2.770 -0.538E-02 -0.269E-02 -0.269E-02
  2.780 -0.565E-02 -0.282E-02 -0.282E-02
  2.790 -0.571E-02 -0.285E-02 -0.285E-02
  2.800 -0.559E-02 -0.280E-02 -0.280E-02
  2.810 -0.534E-02 -0.267E-02 -0.267E-02
  2.820 -0.499E-02 -0.249E-02 -0.249E-02
  2.830 -0.457E-02 -0.228E-02 -0.228E-02
  2.840 -0.411E-02 -0.205E-02 -0.205E-02
  2.850 -0.363E-02 -0.182E-02 -0.182E-02
  2.860 -0.316E-02 -0.158E-02 -0.158E-02
  2.870 -0.272E-02 -0.136E-02 -0.136E-02
  2.880 -0.230E-02 -0.115E-02 -0.115E-02
  2.890 -0.192E-02 -0.958E-03 -0.958E-03
  2.900 -0.158E-02 -0.788E-03 -0.788E-03
  2.910 -0.128E-02 -0.640E-03 -0.640E-03
  2.920 -0.103E-02 -0.513E-03 -0.513E-03
  2.930 -0.813E-03 -0.407E-03 -0.407E-03
  2.940 -0.636E-03 -0.318E-03 -0.318E-03
  2.950 -0.492E-03 -0.246E-03 -0.246E-03
  2.960 -0.376E-03 -0.188E-03 -0.188E-03
  2.970 -0.284E-03 -0.142E-03 -0.142E-03
  2.980 -0.211E-03 -0.106E-03 -0.106E-03
  2.990 -0.156E-03 -0.779E-04 -0.779E-04
  3.000 -0.114E-03 -0.568E-04 -0.568E-04
  3.010 -0.818E-04 -0.409E-04 -0.409E-04
  3.020 -0.583E-04 -0.291E-04 -0.291E-04
  3.030 -0.410E-04 -0.205E-04 -0.205E-04
  3.040 -0.286E-04 -0.143E-04 -0.143E-04
  3.050 -0.197E-04 -0.983E-05 -0.983E-05
  3.060 -0.134E-04 -0.669E-05 -0.669E-05
  3.070 -0.901E-05 -0.450E-05 -0.450E-05
  3.080 -0.600E-05 -0.300E-05 -0.300E-05
  3.090 -0.395E-05 -0.197E-05 -0.197E-05
  3.100 -0.257E-05 -0.128E-05 -0.128E-05
  3.110 -0.165E-05 -0.827E-06 -0.827E-06
  3.120 -0.105E-05 -0.526E-06 -0.526E-06
  3.130 -0.663E-06 -0.331E-06 -0.331E-06
  3.140 -0.413E-06 -0.206E-06 -0.206E-06
  3.150 -0.254E-06 -0.127E-06 -0.127E-06
  3.160 -0.155E-06 -0.774E-07 -0.774E-07
  3.170 -0.931E-07 -0.466E-07 -0.466E-07
  3.180 -0.555E-07 -0.277E-07 -0.277E-07
  3.190 -0.326E-07 -0.163E-07 -0.163E-07
  3.200 -0.190E-07 -0.952E-08 -0.952E-08
  3.210 -0.109E-07 -0.544E-08 -0.544E-08
  3.220 -0.621E-08 -0.311E-08 -0.311E-08
  3.230 -0.345E-08 -0.172E-08 -0.172E-08
  3.240 -0.193E-08 -0.963E-09 -0.963E-09
  3.250 -0.983E-09 -0.491E-09 -0.491E-09
  3.260 -0.447E-09 -0.223E-09 -0.223E-09
  3.270 -0.243E-09 -0.122E-09 -0.122E-09
  3.280 -0.131E-09 -0.655E-10 -0.655E-10
  3.290  0.238E-12  0.119E-12  0.119E-12
  3.300  0.474E-12  0.237E-12  0.237E-12
  3.310  0.931E-12  0.465E-12  0.465E-12
  3.320  0.181E-11  0.905E-12  0.905E-12
  3.330  0.348E-11  0.174E-11  0.174E-11
  3.340  0.663E-11  0.331E-11  0.331E-11
  3.350  0.125E-10  0.624E-11  0.624E-11
  3.360  0.232E-10  0.116E-10  0.116E-10
  3.370  0.428E-10  0.214E-10  0.214E-10
  3.380  0.780E-10  0.390E-10  0.390E-10
  3.390  0.141E-09  0.703E-10  0.703E-10
  3.400  0.251E-09  0.126E-09  0.126E-09
  3.410  0.443E-09  0.222E-09  0.222E-09
  3.420  0.774E-09  0.387E-09  0.387E-09
  3.430  0.134E-08  0.668E-09  0.668E-09
  3.440  0.228E-08  0.114E-08  0.114E-08
  3.450  0.386E-08  0.193E-08  0.193E-08
  3.460  0.647E-08  0.323E-08  0.323E-08
  3.470  0.107E-07  0.535E-08  0.535E-08
  3.480  0.175E-07  0.877E-08  0.877E-08
  3.490  0.284E-07  0.142E-07  0.142E-07
  3.500  0.456E-07  0.228E-07  0.228E-07
  3.510  0.723E-07  0.361E-07  0.361E-07
  3.520  0.113E-06  0.567E-07  0.567E-07
  3.530  0.176E-06  0.882E-07  0.882E-07
  3.540  0.271E-06  0.136E-06  0.136E-06
  3.550  0.412E-06  0.206E-06  0.206E-06
  3.560  0.621E-06  0.310E-06  0.310E-06
  3.570  0.925E-06  0.462E-06  0.462E-06
  3.580  0.136E-05  0.682E-06  0.682E-06
  3.590  0.199E-05  0.995E-06  0.995E-06
  3.600  0.287E-05  0.144E-05  0.144E-05
  3.610  0.411E-05  0.205E-05  0.205E-05
  3.620  0.581E-05  0.291E-05  0.291E-05
  3.630  0.814E-05  0.407E-05  0.407E-05
  3.640  0.113E-04  0.565E-05  0.565E-05
  3.650  0.155E-04  0.775E-05  0.775E-05
  3.660  0.211E-04  0.105E-04  0.105E-04
  3.670  0.284E-04  0.142E-04  0.142E-04
  3.680  0.378E-04  0.189E-04  0.189E-04
  3.690  0.499E-04  0.250E-04  0.250E-04
  3.700  0.653E-04  0.326E-04  0.326E-04
  3.710  0.846E-04  0.423E-04  0.423E-04
  3.720  0.108E-03  0.542E-04  0.542E-04
  3.730  0.138E-03  0.689E-04  0.689E-04
  3.740  0.174E-03  0.868E-04  0.868E-04
  3.750  0.217E-03  0.108E-03  0.108E-03
  3.760  0.268E-03  0.134E-03  0.134E-03
  3.770  0.329E-03  0.164E-03  0.164E-03
  3.780  0.400E-03  0.200E-03  0.200E-03
  3.790  0.482E-03  0.241E-03  0.241E-03
  3.800  0.576E-03  0.288E-03  0.288E-03
  3.810  0.683E-03  0.342E-03  0.342E-03
  3.820  0.804E-03  0.402E-03  0.402E-03
  3.830  0.938E-03  0.469E-03  0.469E-03
  3.840  0.109E-02  0.543E-03  0.543E-03
  3.850  0.125E-02  0.624E-03  0.624E-03
  3.860  0.142E-02  0.712E-03  0.712E-03
  3.870  0.161E-02  0.806E-03  0.806E-03
  3.880  0.181E-02  0.906E-03  0.906E-03
  3.890  0.202E-02  0.101E-02  0.101E-02
  3.900  0.224E-02  0.112E-02  0.112E-02
  3.910  0.247E-02  0.124E-02  0.124E-02
  3.920  0.270E-02  0.135E-02  0.135E-02
  3.930  0.294E-02  0.147E-02  0.147E-02
  3.940  0.318E-02  0.159E-02  0.159E-02
  3.950  0.341E-02  0.171E-02  0.171E-02
  3.960  0.365E-02  0.182E-02  0.182E-02
  3.970  0.387E-02  0.194E-02  0.194E-02
  3.980  0.409E-02  0.205E-02  0.205E-02
  3.990  0.430E-02  0.215E-02  0.215E-02
  4.000  0.450E-02  0.225E-02  0.225E-02
  4.010  0.469E-02  0.234E-02  0.234E-02
  4.020  0.487E-02  0.243E-02  0.243E-02
  4.030  0.503E-02  0.251E-02  0.251E-02
  4.040  0.518E-02  0.259E-02  0.259E-02
  4.050  0.532E-02  0.266E-02  0.266E-02
  4.060  0.546E-02  0.273E-02  0.273E-02
  4.070  0.558E-02  0.279E-02  0.279E-02
  4.080  0.570E-02  0.285E-02  0.285E-02
  4.090  0.581E-02  0.291E-02  0.291E-02
  4.100  0.592E-02  0.296E-02  0.296E-02
  4.110  0.603E-02  0.302E-02  0.302E-02
  4.120  0.614E-02  0.307E-02  0.307E-02
  4.130  0.626E-02  0.313E-02  0.313E-02
  4.140  0.637E-02  0.319E-02  0.319E-02
  4.150  0.649E-02  0.325E-02  0.325E-02
  4.160  0.662E-02  0.331E-02  0.331E-02
  4.170  0.675E-02  0.338E-02  0.338E-02
  4.180  0.689E-02  0.344E-02  0.344E-02
  4.190  0.703E-02  0.352E-02  0.352E-02
  4.200  0.718E-02  0.359E-02  0.359E-02
  4.210  0.733E-02  0.367E-02  0.367E-02
  4.220  0.749E-02  0.375E-02  0.375E-02
  4.230  0.766E-02  0.383E-02  0.383E-02
  4.240  0.782E-02  0.391E-02  0.391E-02
  4.250  0.800E-02  0.400E-02  0.400E-02
  4.260  0.817E-02  0.409E-02  0.409E-02
  4.270  0.835E-02  0.418E-02  0.418E-02
  4.280  0.854E-02  0.427E-02  0.427E-02
  4.290  0.872E-02  0.436E-02  0.436E-02
  4.300  0.892E-02  0.446E-02  0.446E-02
  4.310  0.911E-02  0.456E-02  0.456E-02
  4.320  0.931E-02  0.465E-02  0.465E-02
  4.330  0.951E-02  0.476E-02  0.476E-02
  4.340  0.972E-02  0.486E-02  0.486E-02
  4.350  0.993E-02  0.497E-02  0.497E-02
  4.360  0.101E-01  0.507E-02  0.507E-02
  4.370  0.104E-01  0.518E-02  0.518E-02
  4.380  0.106E-01  0.530E-02  0.530E-02
  4.390  0.108E-01  0.541E-02  0.541E-02
  4.400  0.110E-01  0.552E-02  0.552E-02
  4.410  0.113E-01  0.564E-02  0.564E-02
  4.420  0.115E-01  0.576E-02  0.576E-02
  4.430  0.118E-01  0.588E-02  0.588E-02
  4.440  0.120E-01  0.600E-02  0.600E-02
  4.450  0.122E-01  0.611E-02  0.611E-02
  4.460  0.125E-01  0.623E-02  0.623E-02
  4.470  0.127E-01  0.635E-02  0.635E-02
  4.480  0.129E-01  0.646E-02  0.646E-02
  4.490  0.132E-01  0.658E-02  0.658E-02
  4.500  0.134E-01  0.668E-02  0.668E-02
  4.510  0.136E-01  0.679E-02  0.679E-02
  4.520  0.138E-01  0.689E-02  0.689E-02
  4.530  0.140E-01  0.699E-02  0.699E-02
  4.540  0.142E-01  0.709E-02  0.709E-02
  4.550  0.144E-01  0.718E-02  0.718E-02
  4.560  0.145E-01  0.727E-02  0.727E-02
  4.570  0.147E-01  0.735E-02  0.735E-02
  4.580  0.149E-01  0.743E-02  0.743E-02
  4.590  0.150E-01  0.751E-02  0.751E-02
  4.600  0.152E-01  0.758E-02  0.758E-02
  4.610  0.153E-01  0.765E-02  0.765E-02
  4.620  0.154E-01  0.771E-02  0.771E-02
  4.630  0.156E-01  0.778E-02  0.778E-02
  4.640  0.157E-01  0.784E-02  0.784E-02
  4.650  0.158E-01  0.790E-02  0.790E-02
  4.660  0.159E-01  0.795E-02  0.795E-02
  4.670  0.160E-01  0.801E-02  0.801E-02
  4.680  0.161E-01  0.806E-02  0.806E-02
  4.690  0.162E-01  0.812E-02  0.812E-02
  4.700  0.163E-01  0.817E-02  0.817E-02
  4.710  0.164E-01  0.822E-02  0.822E-02
  4.720  0.165E-01  0.827E-02  0.827E-02
  4.730  0.166E-01  0.832E-02  0.832E-02
  4.740  0.167E-01  0.836E-02  0.836E-02
  4.750  0.168E-01  0.841E-02  0.841E-02
  4.760  0.169E-01  0.846E-02  0.846E-02
  4.770  0.170E-01  0.850E-02  0.850E-02
  4.780  0.171E-01  0.855E-02  0.855E-02
  4.790  0.172E-01  0.859E-02  0.859E-02
  4.800  0.173E-01  0.864E-02  0.864E-02
  4.810  0.174E-01  0.868E-02  0.868E-02
  4.820  0.174E-01  0.872E-02  0.872E-02
  4.830  0.175E-01  0.876E-02  0.876E-02
  4.840  0.176E-01  0.881E-02  0.881E-02
  4.850  0.177E-01  0.885E-02  0.885E-02
  4.860  0.178E-01  0.889E-02  0.889E-02
  4.870  0.178E-01  0.892E-02  0.892E-02
  4.880  0.179E-01  0.896E-02  0.896E-02
  4.890  0.180E-01  0.900E-02  0.900E-02
  4.900  0.181E-01  0.904E-02  0.904E-02
  4.910  0.182E-01  0.908E-02  0.908E-02
  4.920  0.182E-01  0.911E-02  0.911E-02
  4.930  0.183E-01  0.915E-02  0.915E-02
  4.940  0.184E-01  0.918E-02  0.918E-02
  4.950  0.184E-01  0.922E-02  0.922E-02
  4.960  0.185E-01  0.925E-02  0.925E-02
  4.970  0.186E-01  0.928E-02  0.928E-02
  4.980  0.186E-01  0.932E-02  0.932E-02
  4.990  0.187E-01  0.935E-02  0.935E-02
  5.000  0.188E-01  0.938E-02  0.938E-02
  5.010  0.188E-01  0.941E-02  0.941E-02
  5.020  0.189E-01  0.944E-02  0.944E-02
  5.030  0.189E-01  0.947E-02  0.947E-02
  5.040  0.190E-01  0.950E-02  0.950E-02
  5.050  0.191E-01  0.953E-02  0.953E-02
  5.060  0.191E-01  0.956E-02  0.956E-02
  5.070  0.192E-01  0.959E-02  0.959E-02
  5.080  0.192E-01  0.962E-02  0.962E-02
  5.090  0.193E-01  0.964E-02  0.964E-02
  5.100  0.193E-01  0.967E-02  0.967E-02
  5.110  0.194E-01  0.970E-02  0.970E-02
  5.120  0.194E-01  0.972E-02  0.972E-02
  5.130  0.195E-01  0.975E-02  0.975E-02
  5.140  0.195E-01  0.977E-02  0.977E-02
  5.150  0.196E-01  0.980E-02  0.980E-02
  5.160  0.196E-01  0.982E-02  0.982E-02
  5.170  0.197E-01  0.985E-02  0.985E-02
  5.180  0.197E-01  0.987E-02  0.987E-02
  5.190  0.198E-01  0.989E-02  0.989E-02
  5.200  0.198E-01  0.991E-02  0.991E-02
  5.210  0.199E-01  0.993E-02  0.993E-02
  5.220  0.199E-01  0.995E-02  0.995E-02
  5.230  0.199E-01  0.997E-02  0.997E-02
  5.240  0.200E-01  0.999E-02  0.999E-02
  5.250  0.200E-01  0.100E-01  0.100E-01
  5.260  0.201E-01  0.100E-01  0.100E-01
  5.270  0.201E-01  0.100E-01  0.100E-01
  5.280  0.201E-01  0.101E-01  0.101E-01
  5.290  0.202E-01  0.101E-01  0.101E-01
  5.300  0.202E-01  0.101E-01  0.101E-01
  5.310  0.202E-01  0.101E-01  0.101E-01
  5.320  0.202E-01  0.101E-01  0.101E-01
  5.330  0.203E-01  0.101E-01  0.101E-01
  5.340  0.203E-01  0.101E-01  0.101E-01
  5.350  0.203E-01  0.101E-01  0.101E-01
  5.360  0.203E-01  0.102E-01  0.102E-01
  5.370  0.203E-01  0.102E-01  0.102E-01
  5.380  0.203E-01  0.102E-01  0.102E-01
  5.390  0.203E-01  0.102E-01  0.102E-01
  5.400  0.203E-01  0.102E-01  0.102E-01
  5.410  0.203E-01  0.102E-01  0.102E-01
  5.420  0.203E-01  0.102E-01  0.102E-01
  5.430  0.203E-01  0.102E-01  0.102E-01
  5.440  0.203E-01  0.102E-01  0.102E-01
  5.450  0.203E-01  0.102E-01  0.102E-01
  5.460  0.203E-01  0.101E-01  0.101E-01
  5.470  0.203E-01  0.101E-01  0.101E-01
  5.480  0.202E-01  0.101E-01  0.101E-01
  5.490  0.202E-01  0.101E-01  0.101E-01
  5.500  0.202E-01  0.101E-01  0.101E-01
  5.510  0.201E-01  0.101E-01  0.101E-01
  5.520  0.201E-01  0.101E-01  0.101E-01
  5.530  0.201E-01  0.100E-01  0.100E-01
  5.540  0.200E-01  0.100E-01  0.100E-01
  5.550  0.200E-01  0.998E-02  0.998E-02
  5.560  0.199E-01  0.995E-02  0.995E-02
  5.570  0.198E-01  0.992E-02  0.992E-02
  5.580  0.198E-01  0.990E-02  0.990E-02
  5.590  0.197E-01  0.986E-02  0.986E-02
  5.600  0.197E-01  0.983E-02  0.983E-02
  5.610  0.196E-01  0.980E-02  0.980E-02
  5.620  0.195E-01  0.977E-02  0.977E-02
  5.630  0.195E-01  0.975E-02  0.975E-02
  5.640  0.194E-01  0.972E-02  0.972E-02
  5.650  0.194E-01  0.970E-02  0.970E-02
  5.660  0.194E-01  0.968E-02  0.968E-02
  5.670  0.193E-01  0.967E-02  0.967E-02
  5.680  0.193E-01  0.967E-02  0.967E-02
  5.690  0.194E-01  0.968E-02  0.968E-02
  5.700  0.194E-01  0.970E-02  0.970E-02
  5.710  0.195E-01  0.974E-02  0.974E-02
  5.720  0.196E-01  0.979E-02  0.979E-02
  5.730  0.197E-01  0.986E-02  0.986E-02
  5.740  0.199E-01  0.994E-02  0.994E-02
  5.750  0.201E-01  0.101E-01  0.101E-01
  5.760  0.204E-01  0.102E-01  0.102E-01
  5.770  0.207E-01  0.103E-01  0.103E-01
  5.780  0.210E-01  0.105E-01  0.105E-01
  5.790  0.214E-01  0.107E-01  0.107E-01
  5.800  0.218E-01  0.109E-01  0.109E-01
  5.810  0.223E-01  0.111E-01  0.111E-01
  5.820  0.228E-01  0.114E-01  0.114E-01
  5.830  0.233E-01  0.116E-01  0.116E-01
  5.840  0.237E-01  0.119E-01  0.119E-01
  5.850  0.242E-01  0.121E-01  0.121E-01
  5.860  0.246E-01  0.123E-01  0.123E-01
  5.870  0.250E-01  0.125E-01  0.125E-01
  5.880  0.254E-01  0.127E-01  0.127E-01
  5.890  0.257E-01  0.128E-01  0.128E-01
  5.900  0.259E-01  0.129E-01  0.129E-01
  5.910  0.260E-01  0.130E-01  0.130E-01
  5.920  0.260E-01  0.130E-01  0.130E-01
  5.930  0.259E-01  0.130E-01  0.130E-01
  5.940  0.257E-01  0.129E-01  0.129E-01
  5.950  0.255E-01  0.127E-01  0.127E-01
  5.960  0.251E-01  0.126E-01  0.126E-01
  5.970  0.248E-01  0.124E-01  0.124E-01
  5.980  0.243E-01  0.122E-01  0.122E-01
  5.990  0.238E-01  0.119E-01  0.119E-01
  6.000  0.233E-01  0.117E-01  0.117E-01
  6.010  0.228E-01  0.114E-01  0.114E-01
  6.020  0.223E-01  0.111E-01  0.111E-01
  6.030  0.218E-01  0.109E-01  0.109E-01
  6.040  0.213E-01  0.107E-01  0.107E-01
  6.050  0.210E-01  0.105E-01  0.105E-01
  6.060  0.206E-01  0.103E-01  0.103E-01
  6.070  0.203E-01  0.102E-01  0.102E-01
  6.080  0.202E-01  0.101E-01  0.101E-01
  6.090  0.200E-01  0.100E-01  0.100E-01
  6.100  0.200E-01  0.100E-01  0.100E-01
  6.110  0.201E-01  0.100E-01  0.100E-01
  6.120  0.203E-01  0.101E-01  0.101E-01
  6.130  0.205E-01  0.103E-01  0.103E-01
  6.140  0.209E-01  0.104E-01  0.104E-01
  6.150  0.214E-01  0.107E-01  0.107E-01
  6.160  0.219E-01  0.110E-01  0.110E-01
  6.170  0.226E-01  0.113E-01  0.113E-01
  6.180  0.234E-01  0.117E-01  0.117E-01
  6.190  0.242E-01  0.121E-01  0.121E-01
  6.200  0.252E-01  0.126E-01  0.126E-01
  6.210  0.262E-01  0.131E-01  0.131E-01
  6.220  0.274E-01  0.137E-01  0.137E-01
  6.230  0.285E-01  0.143E-01  0.143E-01
  6.240  0.297E-01  0.148E-01  0.148E-01
  6.250  0.309E-01  0.155E-01  0.155E-01
  6.260  0.321E-01  0.160E-01  0.160E-01
  6.270  0.333E-01  0.166E-01  0.166E-01
  6.280  0.344E-01  0.172E-01  0.172E-01
  6.290  0.354E-01  0.177E-01  0.177E-01
  6.300  0.363E-01  0.182E-01  0.182E-01
  6.310  0.371E-01  0.186E-01  0.186E-01
  6.320  0.378E-01  0.189E-01  0.189E-01
  6.330  0.383E-01  0.192E-01  0.192E-01
  6.340  0.387E-01  0.194E-01  0.194E-01
  6.350  0.390E-01  0.195E-01  0.195E-01
  6.360  0.391E-01  0.195E-01  0.195E-01
  6.370  0.390E-01  0.195E-01  0.195E-01
  6.380  0.389E-01  0.195E-01  0.195E-01
  6.390  0.387E-01  0.193E-01  0.193E-01
  6.400  0.383E-01  0.192E-01  0.192E-01
  6.410  0.380E-01  0.190E-01  0.190E-01
  6.420  0.375E-01  0.188E-01  0.188E-01
  6.430  0.371E-01  0.185E-01  0.185E-01
  6.440  0.366E-01  0.183E-01  0.183E-01
  6.450  0.361E-01  0.181E-01  0.181E-01
  6.460  0.357E-01  0.178E-01  0.178E-01
  6.470  0.353E-01  0.176E-01  0.176E-01
  6.480  0.349E-01  0.174E-01  0.174E-01
  6.490  0.345E-01  0.173E-01  0.173E-01
  6.500  0.342E-01  0.171E-01  0.171E-01
  6.510  0.339E-01  0.170E-01  0.170E-01
  6.520  0.337E-01  0.168E-01  0.168E-01
  6.530  0.335E-01  0.167E-01  0.167E-01
  6.540  0.333E-01  0.166E-01  0.166E-01
  6.550  0.331E-01  0.166E-01  0.166E-01
  6.560  0.330E-01  0.165E-01  0.165E-01
  6.570  0.329E-01  0.165E-01  0.165E-01
  6.580  0.328E-01  0.164E-01  0.164E-01
  6.590  0.327E-01  0.164E-01  0.164E-01
  6.600  0.326E-01  0.163E-01  0.163E-01
  6.610  0.326E-01  0.163E-01  0.163E-01
  6.620  0.325E-01  0.162E-01  0.162E-01
  6.630  0.324E-01  0.162E-01  0.162E-01
  6.640  0.324E-01  0.162E-01  0.162E-01
  6.650  0.323E-01  0.161E-01  0.161E-01
  6.660  0.322E-01  0.161E-01  0.161E-01
  6.670  0.322E-01  0.161E-01  0.161E-01
  6.680  0.321E-01  0.160E-01  0.160E-01
  6.690  0.320E-01  0.160E-01  0.160E-01
  6.700  0.320E-01  0.160E-01  0.160E-01
  6.710  0.319E-01  0.159E-01  0.159E-01
  6.720  0.318E-01  0.159E-01  0.159E-01
  6.730  0.317E-01  0.159E-01  0.159E-01
  6.740  0.317E-01  0.158E-01  0.158E-01
  6.750  0.316E-01  0.158E-01  0.158E-01
  6.760  0.315E-01  0.157E-01  0.157E-01
  6.770  0.314E-01  0.157E-01  0.157E-01
  6.780  0.313E-01  0.157E-01  0.157E-01
  6.790  0.312E-01  0.156E-01  0.156E-01
  6.800  0.311E-01  0.156E-01  0.156E-01
  6.810  0.310E-01  0.155E-01  0.155E-01
  6.820  0.310E-01  0.155E-01  0.155E-01
  6.830  0.309E-01  0.154E-01  0.154E-01
  6.840  0.308E-01  0.154E-01  0.154E-01
  6.850  0.307E-01  0.153E-01  0.153E-01
  6.860  0.306E-01  0.153E-01  0.153E-01
  6.870  0.305E-01  0.152E-01  0.152E-01
  6.880  0.304E-01  0.152E-01  0.152E-01
  6.890  0.303E-01  0.151E-01  0.151E-01
  6.900  0.302E-01  0.151E-01  0.151E-01
  6.910  0.301E-01  0.150E-01  0.150E-01
  6.920  0.300E-01  0.150E-01  0.150E-01
  6.930  0.299E-01  0.149E-01  0.149E-01
  6.940  0.298E-01  0.149E-01  0.149E-01
  6.950  0.296E-01  0.148E-01  0.148E-01
  6.960  0.295E-01  0.148E-01  0.148E-01
  6.970  0.294E-01  0.147E-01  0.147E-01
  6.980  0.293E-01  0.147E-01  0.147E-01
  6.990  0.292E-01  0.146E-01  0.146E-01
  7.000  0.291E-01  0.146E-01  0.146E-01
  7.010  0.290E-01  0.145E-01  0.145E-01
  7.020  0.289E-01  0.145E-01  0.145E-01
  7.030  0.288E-01  0.144E-01  0.144E-01
  7.040  0.287E-01  0.144E-01  0.144E-01
  7.050  0.286E-01  0.143E-01  0.143E-01
  7.060  0.285E-01  0.143E-01  0.143E-01
  7.070  0.284E-01  0.142E-01  0.142E-01
  7.080  0.283E-01  0.142E-01  0.142E-01
  7.090  0.282E-01  0.141E-01  0.141E-01
  7.100  0.281E-01  0.141E-01  0.141E-01
  7.110  0.280E-01  0.140E-01  0.140E-01
  7.120  0.279E-01  0.140E-01  0.140E-01
  7.130  0.279E-01  0.139E-01  0.139E-01
  7.140  0.278E-01  0.139E-01  0.139E-01
  7.150  0.277E-01  0.138E-01  0.138E-01
  7.160  0.276E-01  0.138E-01  0.138E-01
  7.170  0.275E-01  0.137E-01  0.137E-01
  7.180  0.273E-01  0.137E-01  0.137E-01
  7.190  0.272E-01  0.136E-01  0.136E-01
  7.200  0.271E-01  0.135E-01  0.135E-01
  7.210  0.269E-01  0.135E-01  0.135E-01
  7.220  0.268E-01  0.134E-01  0.134E-01
  7.230  0.266E-01  0.133E-01  0.133E-01
  7.240  0.264E-01  0.132E-01  0.132E-01
  7.250  0.261E-01  0.131E-01  0.131E-01
  7.260  0.259E-01  0.130E-01  0.130E-01
  7.270  0.256E-01  0.128E-01  0.128E-01
  7.280  0.253E-01  0.127E-01  0.127E-01
  7.290  0.250E-01  0.125E-01  0.125E-01
  7.300  0.247E-01  0.124E-01  0.124E-01
  7.310  0.244E-01  0.122E-01  0.122E-01
  7.320  0.240E-01  0.120E-01  0.120E-01
  7.330  0.237E-01  0.118E-01  0.118E-01
  7.340  0.233E-01  0.116E-01  0.116E-01
  7.350  0.229E-01  0.115E-01  0.115E-01
  7.360  0.225E-01  0.113E-01  0.113E-01
  7.370  0.222E-01  0.111E-01  0.111E-01
  7.380  0.218E-01  0.109E-01  0.109E-01
  7.390  0.214E-01  0.107E-01  0.107E-01
  7.400  0.211E-01  0.105E-01  0.105E-01
  7.410  0.207E-01  0.104E-01  0.104E-01
  7.420  0.204E-01  0.102E-01  0.102E-01
  7.430  0.200E-01  0.100E-01  0.100E-01
  7.440  0.197E-01  0.986E-02  0.986E-02
  7.450  0.194E-01  0.971E-02  0.971E-02
  7.460  0.191E-01  0.957E-02  0.957E-02
  7.470  0.189E-01  0.943E-02  0.943E-02
  7.480  0.186E-01  0.931E-02  0.931E-02
  7.490  0.184E-01  0.919E-02  0.919E-02
  7.500  0.182E-01  0.909E-02  0.909E-02
  7.510  0.180E-01  0.899E-02  0.899E-02
  7.520  0.178E-01  0.890E-02  0.890E-02
  7.530  0.177E-01  0.883E-02  0.883E-02
  7.540  0.175E-01  0.877E-02  0.877E-02
  7.550  0.174E-01  0.872E-02  0.872E-02
  7.560  0.174E-01  0.868E-02  0.868E-02
  7.570  0.173E-01  0.866E-02  0.866E-02
  7.580  0.173E-01  0.865E-02  0.865E-02
  7.590  0.173E-01  0.866E-02  0.866E-02
  7.600  0.174E-01  0.868E-02  0.868E-02
  7.610  0.174E-01  0.871E-02  0.871E-02
  7.620  0.175E-01  0.876E-02  0.876E-02
  7.630  0.176E-01  0.882E-02  0.882E-02
  7.640  0.178E-01  0.889E-02  0.889E-02
  7.650  0.179E-01  0.897E-02  0.897E-02
  7.660  0.181E-01  0.906E-02  0.906E-02
  7.670  0.183E-01  0.915E-02  0.915E-02
  7.680  0.185E-01  0.925E-02  0.925E-02
  7.690  0.187E-01  0.934E-02  0.934E-02
  7.700  0.189E-01  0.943E-02  0.943E-02
  7.710  0.190E-01  0.951E-02  0.951E-02
  7.720  0.191E-01  0.957E-02  0.957E-02
  7.730  0.192E-01  0.962E-02  0.962E-02
  7.740  0.193E-01  0.965E-02  0.965E-02
  7.750  0.193E-01  0.965E-02  0.965E-02
  7.760  0.192E-01  0.962E-02  0.962E-02
  7.770  0.191E-01  0.957E-02  0.957E-02
  7.780  0.190E-01  0.948E-02  0.948E-02
  7.790  0.187E-01  0.937E-02  0.937E-02
  7.800  0.184E-01  0.922E-02  0.922E-02
  7.810  0.181E-01  0.904E-02  0.904E-02
  7.820  0.177E-01  0.884E-02  0.884E-02
  7.830  0.172E-01  0.861E-02  0.861E-02
  7.840  0.167E-01  0.836E-02  0.836E-02
  7.850  0.162E-01  0.810E-02  0.810E-02
  7.860  0.157E-01  0.783E-02  0.783E-02
  7.870  0.151E-01  0.755E-02  0.755E-02
  7.880  0.145E-01  0.727E-02  0.727E-02
  7.890  0.140E-01  0.701E-02  0.701E-02
  7.900  0.135E-01  0.675E-02  0.675E-02
  7.910  0.130E-01  0.651E-02  0.651E-02
  7.920  0.126E-01  0.629E-02  0.629E-02
  7.930  0.122E-01  0.609E-02  0.609E-02
  7.940  0.118E-01  0.591E-02  0.591E-02
  7.950  0.115E-01  0.577E-02  0.577E-02
  7.960  0.113E-01  0.564E-02  0.564E-02
  7.970  0.111E-01  0.554E-02  0.554E-02
  7.980  0.109E-01  0.547E-02  0.547E-02
  7.990  0.108E-01  0.542E-02  0.542E-02
  8.000  0.108E-01  0.539E-02  0.539E-02
  8.010  0.107E-01  0.537E-02  0.537E-02
  8.020  0.107E-01  0.537E-02  0.537E-02
  8.030  0.108E-01  0.538E-02  0.538E-02
  8.040  0.108E-01  0.539E-02  0.539E-02
  8.050  0.108E-01  0.542E-02  0.542E-02
  8.060  0.109E-01  0.544E-02  0.544E-02
  8.070  0.109E-01  0.547E-02  0.547E-02
  8.080  0.110E-01  0.550E-02  0.550E-02
  8.090  0.110E-01  0.552E-02  0.552E-02
  8.100  0.111E-01  0.553E-02  0.553E-02
  8.110  0.111E-01  0.554E-02  0.554E-02
  8.120  0.111E-01  0.555E-02  0.555E-02
  8.130  0.111E-01  0.554E-02  0.554E-02
  8.140  0.111E-01  0.553E-02  0.553E-02
  8.150  0.110E-01  0.550E-02  0.550E-02
  8.160  0.109E-01  0.547E-02  0.547E-02
  8.170  0.109E-01  0.543E-02  0.543E-02
  8.180  0.108E-01  0.539E-02  0.539E-02
  8.190  0.107E-01  0.534E-02  0.534E-02
  8.200  0.106E-01  0.528E-02  0.528E-02
  8.210  0.104E-01  0.522E-02  0.522E-02
  8.220  0.103E-01  0.516E-02  0.516E-02
  8.230  0.102E-01  0.510E-02  0.510E-02
  8.240  0.101E-01  0.503E-02  0.503E-02
  8.250  0.994E-02  0.497E-02  0.497E-02
  8.260  0.982E-02  0.491E-02  0.491E-02
  8.270  0.971E-02  0.485E-02  0.485E-02
  8.280  0.960E-02  0.480E-02  0.480E-02
  8.290  0.950E-02  0.475E-02  0.475E-02
  8.300  0.940E-02  0.470E-02  0.470E-02
  8.310  0.931E-02  0.465E-02  0.465E-02
  8.320  0.923E-02  0.461E-02  0.461E-02
  8.330  0.915E-02  0.457E-02  0.457E-02
  8.340  0.908E-02  0.454E-02  0.454E-02
  8.350  0.901E-02  0.451E-02  0.451E-02
  8.360  0.895E-02  0.447E-02  0.447E-02
  8.370  0.889E-02  0.445E-02  0.445E-02
  8.380  0.884E-02  0.442E-02  0.442E-02
  8.390  0.880E-02  0.440E-02  0.440E-02
  8.400  0.875E-02  0.438E-02  0.438E-02
  8.410  0.872E-02  0.436E-02  0.436E-02
  8.420  0.868E-02  0.434E-02  0.434E-02
  8.430  0.866E-02  0.433E-02  0.433E-02
  8.440  0.863E-02  0.432E-02  0.432E-02
  8.450  0.862E-02  0.431E-02  0.431E-02
  8.460  0.861E-02  0.430E-02  0.430E-02
  8.470  0.861E-02  0.430E-02  0.430E-02
  8.480  0.861E-02  0.431E-02  0.431E-02
  8.490  0.863E-02  0.431E-02  0.431E-02
  8.500  0.865E-02  0.432E-02  0.432E-02
  8.510  0.868E-02  0.434E-02  0.434E-02
  8.520  0.873E-02  0.436E-02  0.436E-02
  8.530  0.878E-02  0.439E-02  0.439E-02
  8.540  0.885E-02  0.443E-02  0.443E-02
  8.550  0.894E-02  0.447E-02  0.447E-02
  8.560  0.903E-02  0.452E-02  0.452E-02
  8.570  0.914E-02  0.457E-02  0.457E-02
  8.580  0.927E-02  0.464E-02  0.464E-02
  8.590  0.941E-02  0.471E-02  0.471E-02
  8.600  0.957E-02  0.479E-02  0.479E-02
  8.610  0.975E-02  0.487E-02  0.487E-02
  8.620  0.994E-02  0.497E-02  0.497E-02
  8.630  0.101E-01  0.507E-02  0.507E-02
  8.640  0.104E-01  0.519E-02  0.519E-02
  8.650  0.106E-01  0.531E-02  0.531E-02
  8.660  0.109E-01  0.544E-02  0.544E-02
  8.670  0.112E-01  0.559E-02  0.559E-02
  8.680  0.115E-01  0.574E-02  0.574E-02
  8.690  0.118E-01  0.591E-02  0.591E-02
  8.700  0.122E-01  0.610E-02  0.610E-02
  8.710  0.126E-01  0.630E-02  0.630E-02
  8.720  0.130E-01  0.652E-02  0.652E-02
  8.730  0.135E-01  0.675E-02  0.675E-02
  8.740  0.140E-01  0.702E-02  0.702E-02
  8.750  0.146E-01  0.730E-02  0.730E-02
  8.760  0.152E-01  0.761E-02  0.761E-02
  8.770  0.159E-01  0.795E-02  0.795E-02
  8.780  0.166E-01  0.832E-02  0.832E-02
  8.790  0.174E-01  0.872E-02  0.872E-02
  8.800  0.183E-01  0.914E-02  0.914E-02
  8.810  0.192E-01  0.960E-02  0.960E-02
  8.820  0.202E-01  0.101E-01  0.101E-01
  8.830  0.212E-01  0.106E-01  0.106E-01
  8.840  0.223E-01  0.111E-01  0.111E-01
  8.850  0.234E-01  0.117E-01  0.117E-01
  8.860  0.246E-01  0.123E-01  0.123E-01
  8.870  0.257E-01  0.129E-01  0.129E-01
  8.880  0.269E-01  0.135E-01  0.135E-01
  8.890  0.281E-01  0.141E-01  0.141E-01
  8.900  0.293E-01  0.146E-01  0.146E-01
  8.910  0.304E-01  0.152E-01  0.152E-01
  8.920  0.315E-01  0.157E-01  0.157E-01
  8.930  0.325E-01  0.162E-01  0.162E-01
  8.940  0.334E-01  0.167E-01  0.167E-01
  8.950  0.342E-01  0.171E-01  0.171E-01
  8.960  0.349E-01  0.174E-01  0.174E-01
  8.970  0.354E-01  0.177E-01  0.177E-01
  8.980  0.358E-01  0.179E-01  0.179E-01
  8.990  0.360E-01  0.180E-01  0.180E-01
  9.000  0.361E-01  0.180E-01  0.180E-01
  9.010  0.360E-01  0.180E-01  0.180E-01
  9.020  0.357E-01  0.178E-01  0.178E-01
  9.030  0.352E-01  0.176E-01  0.176E-01
  9.040  0.346E-01  0.173E-01  0.173E-01
  9.050  0.338E-01  0.169E-01  0.169E-01
  9.060  0.329E-01  0.164E-01  0.164E-01
  9.070  0.318E-01  0.159E-01  0.159E-01
  9.080  0.305E-01  0.152E-01  0.152E-01
  9.090  0.291E-01  0.145E-01  0.145E-01
  9.100  0.275E-01  0.138E-01  0.138E-01
  9.110  0.259E-01  0.129E-01  0.129E-01
  9.120  0.241E-01  0.120E-01  0.120E-01
  9.130  0.222E-01  0.111E-01  0.111E-01
  9.140  0.202E-01  0.101E-01  0.101E-01
  9.150  0.182E-01  0.908E-02  0.908E-02
  9.160  0.161E-01  0.805E-02  0.805E-02
  9.170  0.140E-01  0.701E-02  0.701E-02
  9.180  0.120E-01  0.598E-02  0.598E-02
  9.190  0.995E-02  0.498E-02  0.498E-02
  9.200  0.802E-02  0.401E-02  0.401E-02
  9.210  0.619E-02  0.310E-02  0.310E-02
  9.220  0.449E-02  0.225E-02  0.225E-02
  9.230  0.295E-02  0.147E-02  0.147E-02
  9.240  0.157E-02  0.785E-03  0.785E-03
  9.250  0.372E-03  0.186E-03  0.186E-03
  9.260 -0.639E-03 -0.320E-03 -0.320E-03
  9.270 -0.146E-02 -0.732E-03 -0.732E-03
  9.280 -0.211E-02 -0.105E-02 -0.105E-02
  9.290 -0.258E-02 -0.129E-02 -0.129E-02
  9.300 -0.289E-02 -0.144E-02 -0.144E-02
  9.310 -0.306E-02 -0.153E-02 -0.153E-02
  9.320 -0.311E-02 -0.156E-02 -0.156E-02
  9.330 -0.306E-02 -0.153E-02 -0.153E-02
  9.340 -0.293E-02 -0.146E-02 -0.146E-02
  9.350 -0.273E-02 -0.137E-02 -0.137E-02
  9.360 -0.250E-02 -0.125E-02 -0.125E-02
  9.370 -0.223E-02 -0.112E-02 -0.112E-02
  9.380 -0.195E-02 -0.977E-03 -0.977E-03
  9.390 -0.167E-02 -0.834E-03 -0.834E-03
  9.400 -0.138E-02 -0.692E-03 -0.692E-03
  9.410 -0.110E-02 -0.552E-03 -0.552E-03
  9.420 -0.829E-03 -0.414E-03 -0.414E-03
  9.430 -0.557E-03 -0.278E-03 -0.278E-03
  9.440 -0.282E-03 -0.141E-03 -0.141E-03
  9.450  0.115E-05  0.573E-06  0.573E-06
  9.460  0.302E-03  0.151E-03  0.151E-03
  9.470  0.632E-03  0.316E-03  0.316E-03
  9.480  0.100E-02  0.501E-03  0.501E-03
  9.490  0.143E-02  0.714E-03  0.714E-03
  9.500  0.192E-02  0.960E-03  0.960E-03
  9.510  0.250E-02  0.125E-02  0.125E-02
  9.520  0.317E-02  0.159E-02  0.159E-02
  9.530  0.396E-02  0.198E-02  0.198E-02
  9.540  0.488E-02  0.244E-02  0.244E-02
  9.550  0.595E-02  0.297E-02  0.297E-02
  9.560  0.717E-02  0.359E-02  0.359E-02
  9.570  0.857E-02  0.428E-02  0.428E-02
  9.580  0.101E-01  0.507E-02  0.507E-02
  9.590  0.119E-01  0.596E-02  0.596E-02
  9.600  0.139E-01  0.696E-02  0.696E-02
  9.610  0.161E-01  0.807E-02  0.807E-02
  9.620  0.186E-01  0.929E-02  0.929E-02
  9.630  0.213E-01  0.106E-01  0.106E-01
  9.640  0.243E-01  0.121E-01  0.121E-01
  9.650  0.275E-01  0.138E-01  0.138E-01
  9.660  0.311E-01  0.156E-01  0.156E-01
  9.670  0.351E-01  0.175E-01  0.175E-01
  9.680  0.394E-01  0.197E-01  0.197E-01
  9.690  0.441E-01  0.220E-01  0.220E-01
  9.700  0.492E-01  0.246E-01  0.246E-01
  9.710  0.549E-01  0.274E-01  0.274E-01
  9.720  0.610E-01  0.305E-01  0.305E-01
  9.730  0.676E-01  0.338E-01  0.338E-01
  9.740  0.748E-01  0.374E-01  0.374E-01
  9.750  0.825E-01  0.412E-01  0.412E-01
  9.760  0.907E-01  0.453E-01  0.453E-01
  9.770  0.993E-01  0.497E-01  0.497E-01
  9.780  0.108E+00  0.542E-01  0.542E-01
  9.790  0.118E+00  0.589E-01  0.589E-01
  9.800  0.127E+00  0.636E-01  0.636E-01
  9.810  0.137E+00  0.684E-01  0.684E-01
  9.820  0.146E+00  0.731E-01  0.731E-01
  9.830  0.155E+00  0.777E-01  0.777E-01
  9.840  0.164E+00  0.821E-01  0.821E-01
  9.850  0.172E+00  0.861E-01  0.861E-01
  9.860  0.179E+00  0.897E-01  0.897E-01
  9.870  0.186E+00  0.928E-01  0.928E-01
  9.880  0.191E+00  0.954E-01  0.954E-01
  9.890  0.195E+00  0.974E-01  0.974E-01
  9.900  0.197E+00  0.987E-01  0.987E-01
  9.910  0.199E+00  0.994E-01  0.994E-01
  9.920  0.199E+00  0.994E-01  0.994E-01
  9.930  0.198E+00  0.988E-01  0.988E-01
  9.940  0.195E+00  0.977E-01  0.977E-01
  9.950  0.192E+00  0.960E-01  0.960E-01
  9.960  0.188E+00  0.939E-01  0.939E-01
  9.970  0.183E+00  0.914E-01  0.914E-01
  9.980  0.177E+00  0.887E-01  0.887E-01
  9.990  0.172E+00  0.858E-01  0.858E-01
 10.000  0.166E+00  0.828E-01  0.828E-01
 10.010  0.160E+00  0.798E-01  0.798E-01
 10.020  0.154E+00  0.769E-01  0.769E-01
 10.030  0.148E+00  0.741E-01  0.741E-01
 10.040  0.143E+00  0.715E-01  0.715E-01
 10.050  0.138E+00  0.692E-01  0.692E-01
 10.060  0.134E+00  0.671E-01  0.671E-01
 10.070  0.131E+00  0.653E-01  0.653E-01
 10.080  0.127E+00  0.637E-01  0.637E-01
 10.090  0.125E+00  0.625E-01  0.625E-01
 10.100  0.123E+00  0.615E-01  0.615E-01
 10.110  0.122E+00  0.608E-01  0.608E-01
 10.120  0.121E+00  0.603E-01  0.603E-01
 10.130  0.120E+00  0.601E-01  0.601E-01
 10.140  0.120E+00  0.600E-01  0.600E-01
 10.150  0.120E+00  0.601E-01  0.601E-01
 10.160  0.121E+00  0.604E-01  0.604E-01
 10.170  0.122E+00  0.609E-01  0.609E-01
 10.180  0.123E+00  0.615E-01  0.615E-01
 10.190  0.124E+00  0.622E-01  0.622E-01
 10.200  0.126E+00  0.631E-01  0.631E-01
 10.210  0.128E+00  0.641E-01  0.641E-01
 10.220  0.130E+00  0.652E-01  0.652E-01
 10.230  0.133E+00  0.665E-01  0.665E-01
 10.240  0.136E+00  0.678E-01  0.678E-01
 10.250  0.139E+00  0.693E-01  0.693E-01
 10.260  0.142E+00  0.708E-01  0.708E-01
 10.270  0.145E+00  0.724E-01  0.724E-01
 10.280  0.148E+00  0.740E-01  0.740E-01
 10.290  0.151E+00  0.757E-01  0.757E-01
 10.300  0.155E+00  0.773E-01  0.773E-01
 10.310  0.158E+00  0.789E-01  0.789E-01
 10.320  0.161E+00  0.803E-01  0.803E-01
 10.330  0.163E+00  0.816E-01  0.816E-01
 10.340  0.165E+00  0.826E-01  0.826E-01
 10.350  0.167E+00  0.834E-01  0.834E-01
 10.360  0.167E+00  0.837E-01  0.837E-01
 10.370  0.167E+00  0.837E-01  0.837E-01
 10.380  0.167E+00  0.833E-01  0.833E-01
 10.390  0.165E+00  0.824E-01  0.824E-01
 10.400  0.162E+00  0.810E-01  0.810E-01
 10.410  0.158E+00  0.791E-01  0.791E-01
 10.420  0.153E+00  0.767E-01  0.767E-01
 10.430  0.148E+00  0.739E-01  0.739E-01
 10.440  0.141E+00  0.706E-01  0.706E-01
 10.450  0.134E+00  0.671E-01  0.671E-01
 10.460  0.126E+00  0.632E-01  0.632E-01
 10.470  0.118E+00  0.591E-01  0.591E-01
 10.480  0.110E+00  0.550E-01  0.550E-01
 10.490  0.102E+00  0.508E-01  0.508E-01
 10.500  0.933E-01  0.467E-01  0.467E-01
 10.510  0.853E-01  0.427E-01  0.427E-01
 10.520  0.778E-01  0.389E-01  0.389E-01
 10.530  0.707E-01  0.354E-01  0.354E-01
 10.540  0.644E-01  0.322E-01  0.322E-01
 10.550  0.587E-01  0.293E-01  0.293E-01
 10.560  0.537E-01  0.269E-01  0.269E-01
 10.570  0.495E-01  0.248E-01  0.248E-01
 10.580  0.460E-01  0.230E-01  0.230E-01
 10.590  0.432E-01  0.216E-01  0.216E-01
 10.600  0.411E-01  0.205E-01  0.205E-01
 10.610  0.394E-01  0.197E-01  0.197E-01
 10.620  0.383E-01  0.192E-01  0.192E-01
 10.630  0.376E-01  0.188E-01  0.188E-01
 10.640  0.372E-01  0.186E-01  0.186E-01
 10.650  0.370E-01  0.185E-01  0.185E-01
 10.660  0.371E-01  0.185E-01  0.185E-01
 10.670  0.372E-01  0.186E-01  0.186E-01
 10.680  0.375E-01  0.187E-01  0.187E-01
 10.690  0.377E-01  0.189E-01  0.189E-01
 10.700  0.380E-01  0.190E-01  0.190E-01
 10.710  0.382E-01  0.191E-01  0.191E-01
 10.720  0.385E-01  0.192E-01  0.192E-01
 10.730  0.386E-01  0.193E-01  0.193E-01
 10.740  0.387E-01  0.194E-01  0.194E-01
 10.750  0.388E-01  0.194E-01  0.194E-01
 10.760  0.388E-01  0.194E-01  0.194E-01
 10.770  0.388E-01  0.194E-01  0.194E-01
 10.780  0.387E-01  0.194E-01  0.194E-01
 10.790  0.386E-01  0.193E-01  0.193E-01
 10.800  0.385E-01  0.192E-01  0.192E-01
 10.810  0.383E-01  0.192E-01  0.192E-01
 10.820  0.381E-01  0.191E-01  0.191E-01
 10.830  0.379E-01  0.190E-01  0.190E-01
 10.840  0.377E-01  0.189E-01  0.189E-01
 10.850  0.375E-01  0.188E-01  0.188E-01
 10.860  0.373E-01  0.186E-01  0.186E-01
 10.870  0.371E-01  0.185E-01  0.185E-01
 10.880  0.368E-01  0.184E-01  0.184E-01
 10.890  0.366E-01  0.183E-01  0.183E-01
 10.900  0.364E-01  0.182E-01  0.182E-01
 10.910  0.362E-01  0.181E-01  0.181E-01
 10.920  0.360E-01  0.180E-01  0.180E-01
 10.930  0.358E-01  0.179E-01  0.179E-01
 10.940  0.355E-01  0.178E-01  0.178E-01
 10.950  0.353E-01  0.177E-01  0.177E-01
 10.960  0.351E-01  0.176E-01  0.176E-01
 10.970  0.349E-01  0.175E-01  0.175E-01
 10.980  0.347E-01  0.174E-01  0.174E-01
 10.990  0.345E-01  0.173E-01  0.173E-01
 11.000  0.343E-01  0.172E-01  0.172E-01
 11.010  0.342E-01  0.171E-01  0.171E-01
 11.020  0.340E-01  0.170E-01  0.170E-01
 11.030  0.338E-01  0.169E-01  0.169E-01
 11.040  0.336E-01  0.168E-01  0.168E-01
 11.050  0.334E-01  0.167E-01  0.167E-01
 11.060  0.333E-01  0.166E-01  0.166E-01
 11.070  0.331E-01  0.165E-01  0.165E-01
 11.080  0.329E-01  0.165E-01  0.165E-01
 11.090  0.328E-01  0.164E-01  0.164E-01
 11.100  0.326E-01  0.163E-01  0.163E-01
 11.110  0.325E-01  0.162E-01  0.162E-01
 11.120  0.323E-01  0.162E-01  0.162E-01
 11.130  0.322E-01  0.161E-01  0.161E-01
 11.140  0.320E-01  0.160E-01  0.160E-01
 11.150  0.319E-01  0.159E-01  0.159E-01
 11.160  0.317E-01  0.159E-01  0.159E-01
 11.170  0.316E-01  0.158E-01  0.158E-01
 11.180  0.314E-01  0.157E-01  0.157E-01
 11.190  0.313E-01  0.156E-01  0.156E-01
 11.200  0.311E-01  0.156E-01  0.156E-01
 11.210  0.310E-01  0.155E-01  0.155E-01
 11.220  0.309E-01  0.154E-01  0.154E-01
 11.230  0.307E-01  0.154E-01  0.154E-01
 11.240  0.306E-01  0.153E-01  0.153E-01
 11.250  0.305E-01  0.152E-01  0.152E-01
 11.260  0.304E-01  0.152E-01  0.152E-01
 11.270  0.303E-01  0.151E-01  0.151E-01
 11.280  0.301E-01  0.151E-01  0.151E-01
 11.290  0.300E-01  0.150E-01  0.150E-01
 11.300  0.299E-01  0.149E-01  0.149E-01
 11.310  0.298E-01  0.149E-01  0.149E-01
 11.320  0.297E-01  0.148E-01  0.148E-01
 11.330  0.295E-01  0.148E-01  0.148E-01
 11.340  0.294E-01  0.147E-01  0.147E-01
 11.350  0.293E-01  0.147E-01  0.147E-01
 11.360  0.292E-01  0.146E-01  0.146E-01
 11.370  0.291E-01  0.145E-01  0.145E-01
 11.380  0.290E-01  0.145E-01  0.145E-01
 11.390  0.289E-01  0.144E-01  0.144E-01
 11.400  0.288E-01  0.144E-01  0.144E-01
 11.410  0.287E-01  0.144E-01  0.144E-01
 11.420  0.286E-01  0.143E-01  0.143E-01
 11.430  0.285E-01  0.143E-01  0.143E-01
 11.440  0.284E-01  0.142E-01  0.142E-01
 11.450  0.283E-01  0.142E-01  0.142E-01
 11.460  0.282E-01  0.141E-01  0.141E-01
 11.470  0.281E-01  0.141E-01  0.141E-01
 11.480  0.280E-01  0.140E-01  0.140E-01
 11.490  0.280E-01  0.140E-01  0.140E-01
 11.500  0.279E-01  0.139E-01  0.139E-01
 11.510  0.278E-01  0.139E-01  0.139E-01
 11.520  0.277E-01  0.139E-01  0.139E-01
 11.530  0.276E-01  0.138E-01  0.138E-01
 11.540  0.276E-01  0.138E-01  0.138E-01
 11.550  0.275E-01  0.138E-01  0.138E-01
 11.560  0.275E-01  0.137E-01  0.137E-01
 11.570  0.274E-01  0.137E-01  0.137E-01
 11.580  0.274E-01  0.137E-01  0.137E-01
 11.590  0.274E-01  0.137E-01  0.137E-01
 11.600  0.274E-01  0.137E-01  0.137E-01
 11.610  0.274E-01  0.137E-01  0.137E-01
 11.620  0.274E-01  0.137E-01  0.137E-01
 11.630  0.274E-01  0.137E-01  0.137E-01
 11.640  0.275E-01  0.138E-01  0.138E-01
 11.650  0.276E-01  0.138E-01  0.138E-01
 11.660  0.278E-01  0.139E-01  0.139E-01
 11.670  0.279E-01  0.140E-01  0.140E-01
 11.680  0.282E-01  0.141E-01  0.141E-01
 11.690  0.285E-01  0.142E-01  0.142E-01
 11.700  0.288E-01  0.144E-01  0.144E-01
 11.710  0.292E-01  0.146E-01  0.146E-01
 11.720  0.296E-01  0.148E-01  0.148E-01
 11.730  0.301E-01  0.151E-01  0.151E-01
 11.740  0.307E-01  0.153E-01  0.153E-01
 11.750  0.312E-01  0.156E-01  0.156E-01
 11.760  0.319E-01  0.159E-01  0.159E-01
 11.770  0.325E-01  0.163E-01  0.163E-01
 11.780  0.332E-01  0.166E-01  0.166E-01
 11.790  0.339E-01  0.169E-01  0.169E-01
 11.800  0.346E-01  0.173E-01  0.173E-01
 11.810  0.353E-01  0.176E-01  0.176E-01
 11.820  0.360E-01  0.180E-01  0.180E-01
 11.830  0.367E-01  0.183E-01  0.183E-01
 11.840  0.373E-01  0.187E-01  0.187E-01
 11.850  0.380E-01  0.190E-01  0.190E-01
 11.860  0.385E-01  0.193E-01  0.193E-01
 11.870  0.391E-01  0.195E-01  0.195E-01
 11.880  0.395E-01  0.198E-01  0.198E-01
 11.890  0.399E-01  0.200E-01  0.200E-01
 11.900  0.403E-01  0.201E-01  0.201E-01
 11.910  0.405E-01  0.203E-01  0.203E-01
 11.920  0.407E-01  0.203E-01  0.203E-01
 11.930  0.408E-01  0.204E-01  0.204E-01
 11.940  0.408E-01  0.204E-01  0.204E-01
 11.950  0.407E-01  0.204E-01  0.204E-01
 11.960  0.406E-01  0.203E-01  0.203E-01
 11.970  0.404E-01  0.202E-01  0.202E-01
 11.980  0.402E-01  0.201E-01  0.201E-01
 11.990  0.399E-01  0.199E-01  0.199E-01
 12.000  0.396E-01  0.198E-01  0.198E-01
 12.010  0.392E-01  0.196E-01  0.196E-01
 12.020  0.389E-01  0.194E-01  0.194E-01
 12.030  0.386E-01  0.193E-01  0.193E-01
 12.040  0.382E-01  0.191E-01  0.191E-01
 12.050  0.380E-01  0.190E-01  0.190E-01
 12.060  0.377E-01  0.188E-01  0.188E-01
 12.070  0.375E-01  0.187E-01  0.187E-01
 12.080  0.373E-01  0.186E-01  0.186E-01
 12.090  0.372E-01  0.186E-01  0.186E-01
 12.100  0.371E-01  0.186E-01  0.186E-01
 12.110  0.371E-01  0.186E-01  0.186E-01
 12.120  0.372E-01  0.186E-01  0.186E-01
 12.130  0.373E-01  0.187E-01  0.187E-01
 12.140  0.375E-01  0.187E-01  0.187E-01
 12.150  0.377E-01  0.189E-01  0.189E-01
 12.160  0.380E-01  0.190E-01  0.190E-01
 12.170  0.384E-01  0.192E-01  0.192E-01
 12.180  0.388E-01  0.194E-01  0.194E-01
 12.190  0.392E-01  0.196E-01  0.196E-01
 12.200  0.397E-01  0.199E-01  0.199E-01
 12.210  0.402E-01  0.201E-01  0.201E-01
 12.220  0.408E-01  0.204E-01  0.204E-01
 12.230  0.413E-01  0.207E-01  0.207E-01
 12.240  0.419E-01  0.210E-01  0.210E-01
 12.250  0.425E-01  0.213E-01  0.213E-01
 12.260  0.431E-01  0.216E-01  0.216E-01
 12.270  0.437E-01  0.219E-01  0.219E-01
 12.280  0.443E-01  0.222E-01  0.222E-01
 12.290  0.449E-01  0.224E-01  0.224E-01
 12.300  0.454E-01  0.227E-01  0.227E-01
 12.310  0.458E-01  0.229E-01  0.229E-01
 12.320  0.462E-01  0.231E-01  0.231E-01
 12.330  0.465E-01  0.233E-01  0.233E-01
 12.340  0.467E-01  0.233E-01  0.233E-01
 12.350  0.467E-01  0.234E-01  0.234E-01
 12.360  0.466E-01  0.233E-01  0.233E-01
 12.370  0.464E-01  0.232E-01  0.232E-01
 12.380  0.459E-01  0.230E-01  0.230E-01
 12.390  0.453E-01  0.227E-01  0.227E-01
 12.400  0.445E-01  0.223E-01  0.223E-01
 12.410  0.435E-01  0.218E-01  0.218E-01
 12.420  0.424E-01  0.212E-01  0.212E-01
 12.430  0.411E-01  0.206E-01  0.206E-01
 12.440  0.397E-01  0.198E-01  0.198E-01
 12.450  0.382E-01  0.191E-01  0.191E-01
 12.460  0.366E-01  0.183E-01  0.183E-01
 12.470  0.350E-01  0.175E-01  0.175E-01
 12.480  0.334E-01  0.167E-01  0.167E-01
 12.490  0.318E-01  0.159E-01  0.159E-01
 12.500  0.303E-01  0.152E-01  0.152E-01
 12.510  0.289E-01  0.145E-01  0.145E-01
 12.520  0.276E-01  0.138E-01  0.138E-01
 12.530  0.265E-01  0.132E-01  0.132E-01
 12.540  0.254E-01  0.127E-01  0.127E-01
 12.550  0.245E-01  0.123E-01  0.123E-01
 12.560  0.237E-01  0.119E-01  0.119E-01
 12.570  0.231E-01  0.115E-01  0.115E-01
 12.580  0.226E-01  0.113E-01  0.113E-01
 12.590  0.221E-01  0.111E-01  0.111E-01
 12.600  0.218E-01  0.109E-01  0.109E-01
 12.610  0.215E-01  0.107E-01  0.107E-01
 12.620  0.212E-01  0.106E-01  0.106E-01
 12.630  0.210E-01  0.105E-01  0.105E-01
 12.640  0.208E-01  0.104E-01  0.104E-01
 12.650  0.206E-01  0.103E-01  0.103E-01
 12.660  0.204E-01  0.102E-01  0.102E-01
 12.670  0.202E-01  0.101E-01  0.101E-01
 12.680  0.200E-01  0.100E-01  0.100E-01
 12.690  0.198E-01  0.988E-02  0.988E-02
 12.700  0.195E-01  0.975E-02  0.975E-02
 12.710  0.192E-01  0.962E-02  0.962E-02
 12.720  0.190E-01  0.948E-02  0.948E-02
 12.730  0.187E-01  0.933E-02  0.933E-02
 12.740  0.184E-01  0.918E-02  0.918E-02
 12.750  0.180E-01  0.902E-02  0.902E-02
 12.760  0.177E-01  0.886E-02  0.886E-02
 12.770  0.174E-01  0.871E-02  0.871E-02
 12.780  0.171E-01  0.855E-02  0.855E-02
 12.790  0.168E-01  0.840E-02  0.840E-02
 12.800  0.165E-01  0.826E-02  0.826E-02
 12.810  0.162E-01  0.812E-02  0.812E-02
 12.820  0.160E-01  0.800E-02  0.800E-02
 12.830  0.158E-01  0.788E-02  0.788E-02
 12.840  0.155E-01  0.777E-02  0.777E-02
 12.850  0.153E-01  0.767E-02  0.767E-02
 12.860  0.152E-01  0.758E-02  0.758E-02
 12.870  0.150E-01  0.750E-02  0.750E-02
 12.880  0.149E-01  0.743E-02  0.743E-02
 12.890  0.147E-01  0.736E-02  0.736E-02
 12.900  0.146E-01  0.730E-02  0.730E-02
 12.910  0.145E-01  0.725E-02  0.725E-02
 12.920  0.144E-01  0.720E-02  0.720E-02
 12.930  0.143E-01  0.716E-02  0.716E-02
 12.940  0.142E-01  0.711E-02  0.711E-02
 12.950  0.142E-01  0.708E-02  0.708E-02
 12.960  0.141E-01  0.704E-02  0.704E-02
 12.970  0.140E-01  0.701E-02  0.701E-02
 12.980  0.140E-01  0.698E-02  0.698E-02
 12.990  0.139E-01  0.696E-02  0.696E-02
 13.000  0.139E-01  0.693E-02  0.693E-02
 13.010  0.138E-01  0.691E-02  0.691E-02
 13.020  0.138E-01  0.690E-02  0.690E-02
 13.030  0.138E-01  0.688E-02  0.688E-02
 13.040  0.137E-01  0.686E-02  0.686E-02
 13.050  0.137E-01  0.685E-02  0.685E-02
 13.060  0.137E-01  0.683E-02  0.683E-02
 13.070  0.136E-01  0.681E-02  0.681E-02
 13.080  0.136E-01  0.680E-02  0.680E-02
 13.090  0.136E-01  0.678E-02  0.678E-02
 13.100  0.135E-01  0.676E-02  0.676E-02
 13.110  0.135E-01  0.674E-02  0.674E-02
 13.120  0.135E-01  0.673E-02  0.673E-02
 13.130  0.134E-01  0.671E-02  0.671E-02
 13.140  0.134E-01  0.669E-02  0.669E-02
 13.150  0.134E-01  0.668E-02  0.668E-02
 13.160  0.133E-01  0.666E-02  0.666E-02
 13.170  0.133E-01  0.665E-02  0.665E-02
 13.180  0.133E-01  0.664E-02  0.664E-02
 13.190  0.133E-01  0.663E-02  0.663E-02
 13.200  0.132E-01  0.662E-02  0.662E-02
 13.210  0.132E-01  0.661E-02  0.661E-02
 13.220  0.132E-01  0.660E-02  0.660E-02
 13.230  0.132E-01  0.659E-02  0.659E-02
 13.240  0.132E-01  0.658E-02  0.658E-02
 13.250  0.131E-01  0.657E-02  0.657E-02
 13.260  0.131E-01  0.656E-02  0.656E-02
 13.270  0.131E-01  0.655E-02  0.655E-02
 13.280  0.131E-01  0.655E-02  0.655E-02
 13.290  0.131E-01  0.654E-02  0.654E-02
 13.300  0.131E-01  0.654E-02  0.654E-02
 13.310  0.131E-01  0.654E-02  0.654E-02
 13.320  0.131E-01  0.654E-02  0.654E-02
 13.330  0.131E-01  0.654E-02  0.654E-02
 13.340  0.131E-01  0.655E-02  0.655E-02
 13.350  0.131E-01  0.656E-02  0.656E-02
 13.360  0.131E-01  0.657E-02  0.657E-02
 13.370  0.132E-01  0.658E-02  0.658E-02
 13.380  0.132E-01  0.660E-02  0.660E-02
 13.390  0.132E-01  0.661E-02  0.661E-02
 13.400  0.133E-01  0.663E-02  0.663E-02
 13.410  0.133E-01  0.664E-02  0.664E-02
 13.420  0.133E-01  0.666E-02  0.666E-02
 13.430  0.133E-01  0.667E-02  0.667E-02
 13.440  0.133E-01  0.667E-02  0.667E-02
 13.450  0.133E-01  0.667E-02  0.667E-02
 13.460  0.133E-01  0.667E-02  0.667E-02
 13.470  0.133E-01  0.665E-02  0.665E-02
 13.480  0.133E-01  0.663E-02  0.663E-02
 13.490  0.132E-01  0.659E-02  0.659E-02
 13.500  0.131E-01  0.654E-02  0.654E-02
 13.510  0.130E-01  0.648E-02  0.648E-02
 13.520  0.128E-01  0.640E-02  0.640E-02
 13.530  0.126E-01  0.630E-02  0.630E-02
 13.540  0.124E-01  0.619E-02  0.619E-02
 13.550  0.121E-01  0.607E-02  0.607E-02
 13.560  0.119E-01  0.593E-02  0.593E-02
 13.570  0.116E-01  0.578E-02  0.578E-02
 13.580  0.113E-01  0.563E-02  0.563E-02
 13.590  0.109E-01  0.547E-02  0.547E-02
 13.600  0.106E-01  0.532E-02  0.532E-02
 13.610  0.103E-01  0.517E-02  0.517E-02
 13.620  0.101E-01  0.503E-02  0.503E-02
 13.630  0.982E-02  0.491E-02  0.491E-02
 13.640  0.960E-02  0.480E-02  0.480E-02
 13.650  0.943E-02  0.471E-02  0.471E-02
 13.660  0.930E-02  0.465E-02  0.465E-02
 13.670  0.921E-02  0.461E-02  0.461E-02
 13.680  0.917E-02  0.459E-02  0.459E-02
 13.690  0.918E-02  0.459E-02  0.459E-02
 13.700  0.922E-02  0.461E-02  0.461E-02
 13.710  0.930E-02  0.465E-02  0.465E-02
 13.720  0.941E-02  0.470E-02  0.470E-02
 13.730  0.954E-02  0.477E-02  0.477E-02
 13.740  0.968E-02  0.484E-02  0.484E-02
 13.750  0.984E-02  0.492E-02  0.492E-02
 13.760  0.999E-02  0.500E-02  0.500E-02
 13.770  0.101E-01  0.507E-02  0.507E-02
 13.780  0.103E-01  0.514E-02  0.514E-02
 13.790  0.104E-01  0.520E-02  0.520E-02
 13.800  0.105E-01  0.526E-02  0.526E-02
 13.810  0.106E-01  0.530E-02  0.530E-02
 13.820  0.107E-01  0.534E-02  0.534E-02
 13.830  0.107E-01  0.536E-02  0.536E-02
 13.840  0.108E-01  0.538E-02  0.538E-02
 13.850  0.108E-01  0.539E-02  0.539E-02
 13.860  0.108E-01  0.539E-02  0.539E-02
 13.870  0.108E-01  0.538E-02  0.538E-02
 13.880  0.108E-01  0.538E-02  0.538E-02
 13.890  0.107E-01  0.536E-02  0.536E-02
 13.900  0.107E-01  0.535E-02  0.535E-02
 13.910  0.107E-01  0.534E-02  0.534E-02
 13.920  0.107E-01  0.533E-02  0.533E-02
 13.930  0.107E-01  0.533E-02  0.533E-02
 13.940  0.107E-01  0.533E-02  0.533E-02
 13.950  0.107E-01  0.534E-02  0.534E-02
 13.960  0.107E-01  0.535E-02  0.535E-02
 13.970  0.108E-01  0.538E-02  0.538E-02
 13.980  0.109E-01  0.543E-02  0.543E-02
 13.990  0.110E-01  0.549E-02  0.549E-02
 14.000  0.111E-01  0.557E-02  0.557E-02
 14.010  0.114E-01  0.568E-02  0.568E-02
 14.020  0.116E-01  0.582E-02  0.582E-02
 14.030  0.120E-01  0.600E-02  0.600E-02
 14.040  0.124E-01  0.622E-02  0.622E-02
 14.050  0.130E-01  0.649E-02  0.649E-02
 14.060  0.136E-01  0.682E-02  0.682E-02
 14.070  0.144E-01  0.722E-02  0.722E-02
 14.080  0.154E-01  0.768E-02  0.768E-02
 14.090  0.165E-01  0.823E-02  0.823E-02
 14.100  0.177E-01  0.885E-02  0.885E-02
 14.110  0.191E-01  0.956E-02  0.956E-02
 14.120  0.207E-01  0.103E-01  0.103E-01
 14.130  0.224E-01  0.112E-01  0.112E-01
 14.140  0.243E-01  0.121E-01  0.121E-01
 14.150  0.262E-01  0.131E-01  0.131E-01
 14.160  0.283E-01  0.141E-01  0.141E-01
 14.170  0.304E-01  0.152E-01  0.152E-01
 14.180  0.324E-01  0.162E-01  0.162E-01
 14.190  0.344E-01  0.172E-01  0.172E-01
 14.200  0.363E-01  0.181E-01  0.181E-01
 14.210  0.380E-01  0.190E-01  0.190E-01
 14.220  0.394E-01  0.197E-01  0.197E-01
 14.230  0.405E-01  0.203E-01  0.203E-01
 14.240  0.413E-01  0.206E-01  0.206E-01
 14.250  0.417E-01  0.208E-01  0.208E-01
 14.260  0.417E-01  0.208E-01  0.208E-01
 14.270  0.412E-01  0.206E-01  0.206E-01
 14.280  0.403E-01  0.202E-01  0.202E-01
 14.290  0.391E-01  0.195E-01  0.195E-01
 14.300  0.375E-01  0.187E-01  0.187E-01
 14.310  0.355E-01  0.178E-01  0.178E-01
 14.320  0.333E-01  0.167E-01  0.167E-01
 14.330  0.309E-01  0.155E-01  0.155E-01
 14.340  0.284E-01  0.142E-01  0.142E-01
 14.350  0.258E-01  0.129E-01  0.129E-01
 14.360  0.233E-01  0.116E-01  0.116E-01
 14.370  0.208E-01  0.104E-01  0.104E-01
 14.380  0.184E-01  0.922E-02  0.922E-02
 14.390  0.163E-01  0.813E-02  0.813E-02
 14.400  0.143E-01  0.715E-02  0.715E-02
 14.410  0.126E-01  0.629E-02  0.629E-02
 14.420  0.111E-01  0.555E-02  0.555E-02
 14.430  0.985E-02  0.493E-02  0.493E-02
 14.440  0.885E-02  0.442E-02  0.442E-02
 14.450  0.806E-02  0.403E-02  0.403E-02
 14.460  0.748E-02  0.374E-02  0.374E-02
 14.470  0.707E-02  0.353E-02  0.353E-02
 14.480  0.681E-02  0.340E-02  0.340E-02
 14.490  0.666E-02  0.333E-02  0.333E-02
 14.500  0.662E-02  0.331E-02  0.331E-02
 14.510  0.664E-02  0.332E-02  0.332E-02
 14.520  0.671E-02  0.335E-02  0.335E-02
 14.530  0.681E-02  0.340E-02  0.340E-02
 14.540  0.692E-02  0.346E-02  0.346E-02
 14.550  0.704E-02  0.352E-02  0.352E-02
 14.560  0.715E-02  0.357E-02  0.357E-02
 14.570  0.725E-02  0.362E-02  0.362E-02
 14.580  0.733E-02  0.366E-02  0.366E-02
 14.590  0.739E-02  0.370E-02  0.370E-02
 14.600  0.744E-02  0.372E-02  0.372E-02
 14.610  0.746E-02  0.373E-02  0.373E-02
 14.620  0.747E-02  0.374E-02  0.374E-02
 14.630  0.747E-02  0.373E-02  0.373E-02
 14.640  0.745E-02  0.373E-02  0.373E-02
 14.650  0.742E-02  0.371E-02  0.371E-02
 14.660  0.738E-02  0.369E-02  0.369E-02
 14.670  0.733E-02  0.366E-02  0.366E-02
 14.680  0.726E-02  0.363E-02  0.363E-02
 14.690  0.719E-02  0.360E-02  0.360E-02
 14.700  0.711E-02  0.355E-02  0.355E-02
 14.710  0.702E-02  0.351E-02  0.351E-02
 14.720  0.691E-02  0.346E-02  0.346E-02
 14.730  0.680E-02  0.340E-02  0.340E-02
 14.740  0.667E-02  0.333E-02  0.333E-02
 14.750  0.652E-02  0.326E-02  0.326E-02
 14.760  0.637E-02  0.318E-02  0.318E-02
 14.770  0.620E-02  0.310E-02  0.310E-02
 14.780  0.602E-02  0.301E-02  0.301E-02
 14.790  0.582E-02  0.291E-02  0.291E-02
 14.800  0.561E-02  0.281E-02  0.281E-02
 14.810  0.539E-02  0.270E-02  0.270E-02
 14.820  0.516E-02  0.258E-02  0.258E-02
 14.830  0.493E-02  0.246E-02  0.246E-02
 14.840  0.469E-02  0.234E-02  0.234E-02
 14.850  0.445E-02  0.222E-02  0.222E-02
 14.860  0.421E-02  0.210E-02  0.210E-02
 14.870  0.397E-02  0.199E-02  0.199E-02
 14.880  0.375E-02  0.187E-02  0.187E-02
 14.890  0.353E-02  0.176E-02  0.176E-02
 14.900  0.332E-02  0.166E-02  0.166E-02
 14.910  0.314E-02  0.157E-02  0.157E-02
 14.920  0.296E-02  0.148E-02  0.148E-02
 14.930  0.281E-02  0.141E-02  0.141E-02
 14.940  0.268E-02  0.134E-02  0.134E-02
 14.950  0.257E-02  0.128E-02  0.128E-02
 14.960  0.248E-02  0.124E-02  0.124E-02
 14.970  0.241E-02  0.120E-02  0.120E-02
 14.980  0.235E-02  0.118E-02  0.118E-02
 14.990  0.231E-02  0.116E-02  0.116E-02
 15.000  0.229E-02  0.115E-02  0.115E-02
 15.010  0.228E-02  0.114E-02  0.114E-02
