# E(eV)   ldos(E)   pdos(E)_1   pdos(E)_2   
 -5.000  0.000E+00  0.000E+00  0.000E+00
 -4.990  0.000E+00  0.000E+00  0.000E+00
 -4.980  0.000E+00  0.000E+00  0.000E+00
 -4.970  0.000E+00  0.000E+00  0.000E+00
 -4.960  0.000E+00  0.000E+00  0.000E+00
 -4.950  0.000E+00  0.000E+00  0.000E+00
 -4.940  0.000E+00  0.000E+00  0.000E+00
 -4.930  0.000E+00  0.000E+00  0.000E+00
 -4.920  0.000E+00  0.000E+00  0.000E+00
 -4.910  0.000E+00  0.000E+00  0.000E+00
 -4.900  0.000E+00  0.000E+00  0.000E+00
 -4.890  0.000E+00  0.000E+00  0.000E+00
 -4.880  0.000E+00  0.000E+00  0.000E+00
 -4.870  0.000E+00  0.000E+00  0.000E+00
 -4.860  0.000E+00  0.000E+00  0.000E+00
 -4.850  0.000E+00  0.000E+00  0.000E+00
 -4.840  0.000E+00  0.000E+00  0.000E+00
 -4.830  0.000E+00  0.000E+00  0.000E+00
 -4.820  0.000E+00  0.000E+00  0.000E+00
 -4.810  0.000E+00  0.000E+00  0.000E+00
 -4.800  0.000E+00  0.000E+00  0.000E+00
 -4.790  0.000E+00  0.000E+00  0.000E+00
 -4.780  0.000E+00  0.000E+00  0.000E+00
 -4.770  0.000E+00  0.000E+00  0.000E+00
 -4.760  0.000E+00  0.000E+00  0.000E+00
 -4.750  0.000E+00  0.000E+00  0.000E+00
 -4.740  0.000E+00  0.000E+00  0.000E+00
 -4.730  0.000E+00  0.000E+00  0.000E+00
 -4.720  0.000E+00  0.000E+00  0.000E+00
 -4.710  0.000E+00  0.000E+00  0.000E+00
 -4.700  0.000E+00  0.000E+00  0.000E+00
 -4.690  0.000E+00  0.000E+00  0.000E+00
 -4.680  0.000E+00  0.000E+00  0.000E+00
 -4.670  0.000E+00  0.000E+00  0.000E+00
 -4.660  0.000E+00  0.000E+00  0.000E+00
 -4.650  0.000E+00  0.000E+00  0.000E+00
 -4.640  0.000E+00  0.000E+00  0.000E+00
 -4.630  0.000E+00  0.000E+00  0.000E+00
 -4.620  0.000E+00  0.000E+00  0.000E+00
 -4.610  0.000E+00  0.000E+00  0.000E+00
 -4.600  0.000E+00  0.000E+00  0.000E+00
 -4.590  0.000E+00  0.000E+00  0.000E+00
 -4.580  0.000E+00  0.000E+00  0.000E+00
 -4.570  0.000E+00  0.000E+00  0.000E+00
 -4.560  0.000E+00  0.000E+00  0.000E+00
 -4.550  0.000E+00  0.000E+00  0.000E+00
 -4.540  0.000E+00  0.000E+00  0.000E+00
 -4.530  0.000E+00  0.000E+00  0.000E+00
 -4.520  0.000E+00  0.000E+00  0.000E+00
 -4.510  0.000E+00  0.000E+00  0.000E+00
 -4.500  0.000E+00  0.000E+00  0.000E+00
 -4.490  0.000E+00  0.000E+00  0.000E+00
 -4.480  0.000E+00  0.000E+00  0.000E+00
 -4.470  0.000E+00  0.000E+00  0.000E+00
 -4.460  0.000E+00  0.000E+00  0.000E+00
 -4.450  0.000E+00  0.000E+00  0.000E+00
 -4.440  0.000E+00  0.000E+00  0.000E+00
 -4.430  0.000E+00  0.000E+00  0.000E+00
 -4.420  0.000E+00  0.000E+00  0.000E+00
 -4.410  0.000E+00  0.000E+00  0.000E+00
 -4.400  0.000E+00  0.000E+00  0.000E+00
 -4.390  0.000E+00  0.000E+00  0.000E+00
 -4.380  0.000E+00  0.000E+00  0.000E+00
 -4.370  0.000E+00  0.000E+00  0.000E+00
 -4.360  0.000E+00  0.000E+00  0.000E+00
 -4.350  0.000E+00  0.000E+00  0.000E+00
 -4.340  0.000E+00  0.000E+00  0.000E+00
 -4.330  0.000E+00  0.000E+00  0.000E+00
 -4.320  0.000E+00  0.000E+00  0.000E+00
 -4.310  0.000E+00  0.000E+00  0.000E+00
 -4.300  0.000E+00  0.000E+00  0.000E+00
 -4.290  0.000E+00  0.000E+00  0.000E+00
 -4.280  0.000E+00  0.000E+00  0.000E+00
 -4.270  0.000E+00  0.000E+00  0.000E+00
 -4.260  0.000E+00  0.000E+00  0.000E+00
 -4.250  0.000E+00  0.000E+00  0.000E+00
 -4.240  0.000E+00  0.000E+00  0.000E+00
 -4.230  0.000E+00  0.000E+00  0.000E+00
 -4.220  0.000E+00  0.000E+00  0.000E+00
 -4.210  0.000E+00  0.000E+00  0.000E+00
 -4.200  0.000E+00  0.000E+00  0.000E+00
 -4.190  0.000E+00  0.000E+00  0.000E+00
 -4.180  0.000E+00  0.000E+00  0.000E+00
 -4.170  0.000E+00  0.000E+00  0.000E+00
 -4.160  0.000E+00  0.000E+00  0.000E+00
 -4.150  0.000E+00  0.000E+00  0.000E+00
 -4.140  0.000E+00  0.000E+00  0.000E+00
 -4.130  0.000E+00  0.000E+00  0.000E+00
 -4.120  0.000E+00  0.000E+00  0.000E+00
 -4.110  0.000E+00  0.000E+00  0.000E+00
 -4.100  0.000E+00  0.000E+00  0.000E+00
 -4.090  0.000E+00  0.000E+00  0.000E+00
 -4.080  0.000E+00  0.000E+00  0.000E+00
 -4.070  0.000E+00  0.000E+00  0.000E+00
 -4.060  0.000E+00  0.000E+00  0.000E+00
 -4.050  0.000E+00  0.000E+00  0.000E+00
 -4.040  0.000E+00  0.000E+00  0.000E+00
 -4.030  0.000E+00  0.000E+00  0.000E+00
 -4.020  0.000E+00  0.000E+00  0.000E+00
 -4.010  0.000E+00  0.000E+00  0.000E+00
 -4.000  0.000E+00  0.000E+00  0.000E+00
 -3.990  0.000E+00  0.000E+00  0.000E+00
 -3.980  0.000E+00  0.000E+00  0.000E+00
 -3.970  0.000E+00  0.000E+00  0.000E+00
 -3.960  0.000E+00  0.000E+00  0.000E+00
 -3.950  0.000E+00  0.000E+00  0.000E+00
 -3.940  0.000E+00  0.000E+00  0.000E+00
 -3.930  0.000E+00  0.000E+00  0.000E+00
 -3.920  0.000E+00  0.000E+00  0.000E+00
 -3.910  0.497E-16  0.249E-16  0.249E-16
 -3.900  0.114E-15  0.571E-16  0.571E-16
 -3.890  0.259E-15  0.130E-15  0.130E-15
 -3.880  0.625E-15  0.312E-15  0.312E-15
 -3.870  0.139E-14  0.696E-15  0.696E-15
 -3.860  0.306E-14  0.153E-14  0.153E-14
 -3.850  0.671E-14  0.336E-14  0.336E-14
 -3.840  0.145E-13  0.724E-14  0.724E-14
 -3.830  0.309E-13  0.154E-13  0.154E-13
 -3.820  0.651E-13  0.326E-13  0.326E-13
 -3.810  0.136E-12  0.680E-13  0.680E-13
 -3.800  0.281E-12  0.140E-12  0.140E-12
 -3.790  0.573E-12  0.287E-12  0.287E-12
 -3.780  0.116E-11  0.579E-12  0.579E-12
 -3.770  0.232E-11  0.116E-11  0.116E-11
 -3.760  0.458E-11  0.229E-11  0.229E-11
 -3.750  0.895E-11  0.448E-11  0.448E-11
 -3.740  0.173E-10  0.866E-11  0.866E-11
 -3.730  0.332E-10  0.166E-10  0.166E-10
 -3.720  0.628E-10  0.314E-10  0.314E-10
 -3.710  0.118E-09  0.588E-10  0.588E-10
 -3.700  0.218E-09  0.109E-09  0.109E-09
 -3.690  0.399E-09  0.200E-09  0.200E-09
 -3.680  0.724E-09  0.362E-09  0.362E-09
 -3.670  0.130E-08  0.649E-09  0.649E-09
 -3.660  0.230E-08  0.115E-08  0.115E-08
 -3.650  0.404E-08  0.202E-08  0.202E-08
 -3.640  0.702E-08  0.351E-08  0.351E-08
 -3.630  0.121E-07  0.603E-08  0.603E-08
 -3.620  0.205E-07  0.102E-07  0.102E-07
 -3.610  0.345E-07  0.172E-07  0.172E-07
 -3.600  0.573E-07  0.287E-07  0.287E-07
 -3.590  0.943E-07  0.471E-07  0.471E-07
 -3.580  0.153E-06  0.767E-07  0.767E-07
 -3.570  0.247E-06  0.124E-06  0.124E-06
 -3.560  0.394E-06  0.197E-06  0.197E-06
 -3.550  0.621E-06  0.310E-06  0.310E-06
 -3.540  0.967E-06  0.484E-06  0.484E-06
 -3.530  0.149E-05  0.746E-06  0.746E-06
 -3.520  0.228E-05  0.114E-05  0.114E-05
 -3.510  0.344E-05  0.172E-05  0.172E-05
 -3.500  0.514E-05  0.257E-05  0.257E-05
 -3.490  0.759E-05  0.380E-05  0.380E-05
 -3.480  0.111E-04  0.555E-05  0.555E-05
 -3.470  0.161E-04  0.803E-05  0.803E-05
 -3.460  0.230E-04  0.115E-04  0.115E-04
 -3.450  0.325E-04  0.163E-04  0.163E-04
 -3.440  0.456E-04  0.228E-04  0.228E-04
 -3.430  0.632E-04  0.316E-04  0.316E-04
 -3.420  0.867E-04  0.434E-04  0.434E-04
 -3.410  0.118E-03  0.589E-04  0.589E-04
 -3.400  0.158E-03  0.790E-04  0.790E-04
 -3.390  0.210E-03  0.105E-03  0.105E-03
 -3.380  0.276E-03  0.138E-03  0.138E-03
 -3.370  0.360E-03  0.180E-03  0.180E-03
 -3.360  0.463E-03  0.232E-03  0.232E-03
 -3.350  0.591E-03  0.295E-03  0.295E-03
 -3.340  0.745E-03  0.373E-03  0.373E-03
 -3.330  0.931E-03  0.465E-03  0.465E-03
 -3.320  0.115E-02  0.575E-03  0.575E-03
 -3.310  0.141E-02  0.704E-03  0.704E-03
 -3.300  0.170E-02  0.852E-03  0.852E-03
 -3.290  0.204E-02  0.102E-02  0.102E-02
 -3.280  0.243E-02  0.121E-02  0.121E-02
 -3.270  0.285E-02  0.143E-02  0.143E-02
 -3.260  0.332E-02  0.166E-02  0.166E-02
 -3.250  0.383E-02  0.191E-02  0.191E-02
 -3.240  0.437E-02  0.219E-02  0.219E-02
 -3.230  0.494E-02  0.247E-02  0.247E-02
 -3.220  0.554E-02  0.277E-02  0.277E-02
 -3.210  0.615E-02  0.308E-02  0.308E-02
 -3.200  0.677E-02  0.338E-02  0.338E-02
 -3.190  0.738E-02  0.369E-02  0.369E-02
 -3.180  0.799E-02  0.399E-02  0.399E-02
 -3.170  0.857E-02  0.428E-02  0.428E-02
 -3.160  0.911E-02  0.456E-02  0.456E-02
 -3.150  0.962E-02  0.481E-02  0.481E-02
 -3.140  0.101E-01  0.504E-02  0.504E-02
 -3.130  0.105E-01  0.524E-02  0.524E-02
 -3.120  0.108E-01  0.542E-02  0.542E-02
 -3.110  0.111E-01  0.556E-02  0.556E-02
 -3.100  0.114E-01  0.568E-02  0.568E-02
 -3.090  0.115E-01  0.577E-02  0.577E-02
 -3.080  0.117E-01  0.583E-02  0.583E-02
 -3.070  0.117E-01  0.586E-02  0.586E-02
 -3.060  0.117E-01  0.587E-02  0.587E-02
 -3.050  0.117E-01  0.586E-02  0.586E-02
 -3.040  0.117E-01  0.584E-02  0.584E-02
 -3.030  0.116E-01  0.580E-02  0.580E-02
 -3.020  0.115E-01  0.575E-02  0.575E-02
 -3.010  0.114E-01  0.569E-02  0.569E-02
 -3.000  0.113E-01  0.563E-02  0.563E-02
 -2.990  0.111E-01  0.557E-02  0.557E-02
 -2.980  0.110E-01  0.550E-02  0.550E-02
 -2.970  0.109E-01  0.544E-02  0.544E-02
 -2.960  0.108E-01  0.538E-02  0.538E-02
 -2.950  0.107E-01  0.533E-02  0.533E-02
 -2.940  0.106E-01  0.528E-02  0.528E-02
 -2.930  0.105E-01  0.523E-02  0.523E-02
 -2.920  0.104E-01  0.519E-02  0.519E-02
 -2.910  0.103E-01  0.515E-02  0.515E-02
 -2.900  0.102E-01  0.511E-02  0.511E-02
 -2.890  0.102E-01  0.508E-02  0.508E-02
 -2.880  0.101E-01  0.505E-02  0.505E-02
 -2.870  0.101E-01  0.503E-02  0.503E-02
 -2.860  0.100E-01  0.500E-02  0.500E-02
 -2.850  0.997E-02  0.498E-02  0.498E-02
 -2.840  0.993E-02  0.497E-02  0.497E-02
 -2.830  0.990E-02  0.495E-02  0.495E-02
 -2.820  0.988E-02  0.494E-02  0.494E-02
 -2.810  0.987E-02  0.493E-02  0.493E-02
 -2.800  0.987E-02  0.493E-02  0.493E-02
 -2.790  0.988E-02  0.494E-02  0.494E-02
 -2.780  0.992E-02  0.496E-02  0.496E-02
 -2.770  0.999E-02  0.500E-02  0.500E-02
 -2.760  0.101E-01  0.505E-02  0.505E-02
 -2.750  0.103E-01  0.513E-02  0.513E-02
 -2.740  0.105E-01  0.524E-02  0.524E-02
 -2.730  0.108E-01  0.540E-02  0.540E-02
 -2.720  0.112E-01  0.562E-02  0.562E-02
 -2.710  0.118E-01  0.591E-02  0.591E-02
 -2.700  0.126E-01  0.629E-02  0.629E-02
 -2.690  0.136E-01  0.678E-02  0.678E-02
 -2.680  0.148E-01  0.741E-02  0.741E-02
 -2.670  0.164E-01  0.819E-02  0.819E-02
 -2.660  0.183E-01  0.917E-02  0.917E-02
 -2.650  0.207E-01  0.104E-01  0.104E-01
 -2.640  0.236E-01  0.118E-01  0.118E-01
 -2.630  0.270E-01  0.135E-01  0.135E-01
 -2.620  0.310E-01  0.155E-01  0.155E-01
 -2.610  0.356E-01  0.178E-01  0.178E-01
 -2.600  0.408E-01  0.204E-01  0.204E-01
 -2.590  0.468E-01  0.234E-01  0.234E-01
 -2.580  0.533E-01  0.267E-01  0.267E-01
 -2.570  0.604E-01  0.302E-01  0.302E-01
 -2.560  0.681E-01  0.341E-01  0.341E-01
 -2.550  0.762E-01  0.381E-01  0.381E-01
 -2.540  0.846E-01  0.423E-01  0.423E-01
 -2.530  0.931E-01  0.466E-01  0.466E-01
 -2.520  0.102E+00  0.508E-01  0.508E-01
 -2.510  0.110E+00  0.550E-01  0.550E-01
 -2.500  0.118E+00  0.589E-01  0.589E-01
 -2.490  0.125E+00  0.626E-01  0.626E-01
 -2.480  0.132E+00  0.659E-01  0.659E-01
 -2.470  0.137E+00  0.687E-01  0.687E-01
 -2.460  0.142E+00  0.710E-01  0.710E-01
 -2.450  0.145E+00  0.727E-01  0.727E-01
 -2.440  0.148E+00  0.738E-01  0.738E-01
 -2.430  0.149E+00  0.743E-01  0.743E-01
 -2.420  0.148E+00  0.742E-01  0.742E-01
 -2.410  0.147E+00  0.735E-01  0.735E-01
 -2.400  0.145E+00  0.724E-01  0.724E-01
 -2.390  0.142E+00  0.709E-01  0.709E-01
 -2.380  0.138E+00  0.690E-01  0.690E-01
 -2.370  0.134E+00  0.670E-01  0.670E-01
 -2.360  0.130E+00  0.649E-01  0.649E-01
 -2.350  0.125E+00  0.627E-01  0.627E-01
 -2.340  0.121E+00  0.607E-01  0.607E-01
 -2.330  0.118E+00  0.589E-01  0.589E-01
 -2.320  0.115E+00  0.574E-01  0.574E-01
 -2.310  0.112E+00  0.562E-01  0.562E-01
 -2.300  0.111E+00  0.554E-01  0.554E-01
 -2.290  0.110E+00  0.550E-01  0.550E-01
 -2.280  0.110E+00  0.550E-01  0.550E-01
 -2.270  0.111E+00  0.555E-01  0.555E-01
 -2.260  0.113E+00  0.563E-01  0.563E-01
 -2.250  0.115E+00  0.574E-01  0.574E-01
 -2.240  0.118E+00  0.588E-01  0.588E-01
 -2.230  0.121E+00  0.603E-01  0.603E-01
 -2.220  0.124E+00  0.620E-01  0.620E-01
 -2.210  0.127E+00  0.637E-01  0.637E-01
 -2.200  0.131E+00  0.654E-01  0.654E-01
 -2.190  0.134E+00  0.669E-01  0.669E-01
 -2.180  0.136E+00  0.682E-01  0.682E-01
 -2.170  0.139E+00  0.693E-01  0.693E-01
 -2.160  0.140E+00  0.701E-01  0.701E-01
 -2.150  0.141E+00  0.706E-01  0.706E-01
 -2.140  0.142E+00  0.708E-01  0.708E-01
 -2.130  0.141E+00  0.706E-01  0.706E-01
 -2.120  0.140E+00  0.701E-01  0.701E-01
 -2.110  0.139E+00  0.693E-01  0.693E-01
 -2.100  0.136E+00  0.682E-01  0.682E-01
 -2.090  0.134E+00  0.670E-01  0.670E-01
 -2.080  0.131E+00  0.656E-01  0.656E-01
 -2.070  0.128E+00  0.641E-01  0.641E-01
 -2.060  0.125E+00  0.625E-01  0.625E-01
 -2.050  0.122E+00  0.610E-01  0.610E-01
 -2.040  0.119E+00  0.595E-01  0.595E-01
 -2.030  0.116E+00  0.581E-01  0.581E-01
 -2.020  0.114E+00  0.568E-01  0.568E-01
 -2.010  0.111E+00  0.557E-01  0.557E-01
 -2.000  0.109E+00  0.547E-01  0.547E-01
 -1.990  0.108E+00  0.538E-01  0.538E-01
 -1.980  0.106E+00  0.531E-01  0.531E-01
 -1.970  0.105E+00  0.524E-01  0.524E-01
 -1.960  0.104E+00  0.519E-01  0.519E-01
 -1.950  0.103E+00  0.514E-01  0.514E-01
 -1.940  0.102E+00  0.509E-01  0.509E-01
 -1.930  0.101E+00  0.504E-01  0.504E-01
 -1.920  0.997E-01  0.499E-01  0.499E-01
 -1.910  0.985E-01  0.493E-01  0.493E-01
 -1.900  0.971E-01  0.486E-01  0.486E-01
 -1.890  0.955E-01  0.478E-01  0.478E-01
 -1.880  0.936E-01  0.468E-01  0.468E-01
 -1.870  0.915E-01  0.457E-01  0.457E-01
 -1.860  0.890E-01  0.445E-01  0.445E-01
 -1.850  0.863E-01  0.431E-01  0.431E-01
 -1.840  0.832E-01  0.416E-01  0.416E-01
 -1.830  0.798E-01  0.399E-01  0.399E-01
 -1.820  0.762E-01  0.381E-01  0.381E-01
 -1.810  0.722E-01  0.361E-01  0.361E-01
 -1.800  0.681E-01  0.341E-01  0.341E-01
 -1.790  0.638E-01  0.319E-01  0.319E-01
 -1.780  0.592E-01  0.296E-01  0.296E-01
 -1.770  0.545E-01  0.273E-01  0.273E-01
 -1.760  0.498E-01  0.249E-01  0.249E-01
 -1.750  0.449E-01  0.225E-01  0.225E-01
 -1.740  0.400E-01  0.200E-01  0.200E-01
 -1.730  0.352E-01  0.176E-01  0.176E-01
 -1.720  0.304E-01  0.152E-01  0.152E-01
 -1.710  0.257E-01  0.129E-01  0.129E-01
 -1.700  0.212E-01  0.106E-01  0.106E-01
 -1.690  0.169E-01  0.845E-02  0.845E-02
 -1.680  0.129E-01  0.643E-02  0.643E-02
 -1.670  0.913E-02  0.456E-02  0.456E-02
 -1.660  0.574E-02  0.287E-02  0.287E-02
 -1.650  0.273E-02  0.137E-02  0.137E-02
 -1.640  0.118E-03  0.591E-04  0.591E-04
 -1.630 -0.209E-02 -0.105E-02 -0.105E-02
 -1.620 -0.390E-02 -0.195E-02 -0.195E-02
 -1.610 -0.531E-02 -0.265E-02 -0.265E-02
 -1.600 -0.634E-02 -0.317E-02 -0.317E-02
 -1.590 -0.703E-02 -0.352E-02 -0.352E-02
 -1.580 -0.741E-02 -0.370E-02 -0.370E-02
 -1.570 -0.752E-02 -0.376E-02 -0.376E-02
 -1.560 -0.740E-02 -0.370E-02 -0.370E-02
 -1.550 -0.710E-02 -0.355E-02 -0.355E-02
 -1.540 -0.667E-02 -0.333E-02 -0.333E-02
 -1.530 -0.614E-02 -0.307E-02 -0.307E-02
 -1.520 -0.555E-02 -0.277E-02 -0.277E-02
 -1.510 -0.493E-02 -0.246E-02 -0.246E-02
 -1.500 -0.431E-02 -0.215E-02 -0.215E-02
 -1.490 -0.371E-02 -0.186E-02 -0.186E-02
 -1.480 -0.315E-02 -0.158E-02 -0.158E-02
 -1.470 -0.264E-02 -0.132E-02 -0.132E-02
 -1.460 -0.218E-02 -0.109E-02 -0.109E-02
 -1.450 -0.177E-02 -0.886E-03 -0.886E-03
 -1.440 -0.143E-02 -0.713E-03 -0.713E-03
 -1.430 -0.113E-02 -0.566E-03 -0.566E-03
 -1.420 -0.887E-03 -0.443E-03 -0.443E-03
 -1.410 -0.686E-03 -0.343E-03 -0.343E-03
 -1.400 -0.525E-03 -0.262E-03 -0.262E-03
 -1.390 -0.396E-03 -0.198E-03 -0.198E-03
 -1.380 -0.296E-03 -0.148E-03 -0.148E-03
 -1.370 -0.218E-03 -0.109E-03 -0.109E-03
 -1.360 -0.159E-03 -0.794E-04 -0.794E-04
 -1.350 -0.114E-03 -0.572E-04 -0.572E-04
 -1.340 -0.813E-04 -0.407E-04 -0.407E-04
 -1.330 -0.572E-04 -0.286E-04 -0.286E-04
 -1.320 -0.398E-04 -0.199E-04 -0.199E-04
 -1.310 -0.273E-04 -0.137E-04 -0.137E-04
 -1.300 -0.186E-04 -0.928E-05 -0.928E-05
 -1.290 -0.125E-04 -0.624E-05 -0.624E-05
 -1.280 -0.828E-05 -0.414E-05 -0.414E-05
 -1.270 -0.544E-05 -0.272E-05 -0.272E-05
 -1.260 -0.353E-05 -0.176E-05 -0.176E-05
 -1.250 -0.226E-05 -0.113E-05 -0.113E-05
 -1.240 -0.144E-05 -0.718E-06 -0.718E-06
 -1.230 -0.901E-06 -0.451E-06 -0.451E-06
 -1.220 -0.559E-06 -0.280E-06 -0.280E-06
 -1.210 -0.343E-06 -0.171E-06 -0.171E-06
 -1.200 -0.208E-06 -0.104E-06 -0.104E-06
 -1.190 -0.125E-06 -0.623E-07 -0.623E-07
 -1.180 -0.740E-07 -0.370E-07 -0.370E-07
 -1.170 -0.434E-07 -0.217E-07 -0.217E-07
 -1.160 -0.251E-07 -0.126E-07 -0.126E-07
 -1.150 -0.144E-07 -0.719E-08 -0.719E-08
 -1.140 -0.812E-08 -0.406E-08 -0.406E-08
 -1.130 -0.450E-08 -0.225E-08 -0.225E-08
 -1.120 -0.245E-08 -0.122E-08 -0.122E-08
 -1.110 -0.129E-08 -0.646E-09 -0.646E-09
 -1.100 -0.649E-09 -0.324E-09 -0.324E-09
 -1.090 -0.266E-09 -0.133E-09 -0.133E-09
 -1.080  0.000E+00  0.000E+00  0.000E+00
 -1.070  0.000E+00  0.000E+00  0.000E+00
 -1.060  0.000E+00  0.000E+00  0.000E+00
 -1.050  0.000E+00  0.000E+00  0.000E+00
 -1.040  0.000E+00  0.000E+00  0.000E+00
 -1.030  0.000E+00  0.000E+00  0.000E+00
 -1.020  0.000E+00  0.000E+00  0.000E+00
 -1.010  0.000E+00  0.000E+00  0.000E+00
 -1.000  0.000E+00  0.000E+00  0.000E+00
 -0.990  0.000E+00  0.000E+00  0.000E+00
 -0.980  0.000E+00  0.000E+00  0.000E+00
 -0.970  0.000E+00  0.000E+00  0.000E+00
 -0.960  0.000E+00  0.000E+00  0.000E+00
 -0.950  0.000E+00  0.000E+00  0.000E+00
 -0.940  0.000E+00  0.000E+00  0.000E+00
 -0.930  0.000E+00  0.000E+00  0.000E+00
 -0.920  0.000E+00  0.000E+00  0.000E+00
 -0.910  0.000E+00  0.000E+00  0.000E+00
 -0.900  0.000E+00  0.000E+00  0.000E+00
 -0.890  0.000E+00  0.000E+00  0.000E+00
 -0.880  0.000E+00  0.000E+00  0.000E+00
 -0.870  0.000E+00  0.000E+00  0.000E+00
 -0.860  0.000E+00  0.000E+00  0.000E+00
 -0.850  0.000E+00  0.000E+00  0.000E+00
 -0.840  0.000E+00  0.000E+00  0.000E+00
 -0.830  0.000E+00  0.000E+00  0.000E+00
 -0.820  0.000E+00  0.000E+00  0.000E+00
 -0.810  0.000E+00  0.000E+00  0.000E+00
 -0.800  0.000E+00  0.000E+00  0.000E+00
 -0.790  0.000E+00  0.000E+00  0.000E+00
 -0.780  0.000E+00  0.000E+00  0.000E+00
 -0.770  0.000E+00  0.000E+00  0.000E+00
 -0.760  0.000E+00  0.000E+00  0.000E+00
 -0.750  0.000E+00  0.000E+00  0.000E+00
 -0.740  0.000E+00  0.000E+00  0.000E+00
 -0.730  0.000E+00  0.000E+00  0.000E+00
 -0.720  0.000E+00  0.000E+00  0.000E+00
 -0.710  0.000E+00  0.000E+00  0.000E+00
 -0.700  0.000E+00  0.000E+00  0.000E+00
 -0.690  0.000E+00  0.000E+00  0.000E+00
 -0.680  0.000E+00  0.000E+00  0.000E+00
 -0.670  0.000E+00  0.000E+00  0.000E+00
 -0.660  0.000E+00  0.000E+00  0.000E+00
 -0.650  0.000E+00  0.000E+00  0.000E+00
 -0.640  0.000E+00  0.000E+00  0.000E+00
 -0.630  0.000E+00  0.000E+00  0.000E+00
 -0.620  0.000E+00  0.000E+00  0.000E+00
 -0.610  0.000E+00  0.000E+00  0.000E+00
 -0.600  0.000E+00  0.000E+00  0.000E+00
 -0.590  0.000E+00  0.000E+00  0.000E+00
 -0.580  0.000E+00  0.000E+00  0.000E+00
 -0.570  0.000E+00  0.000E+00  0.000E+00
 -0.560  0.000E+00  0.000E+00  0.000E+00
 -0.550  0.105E-16  0.524E-17  0.524E-17
 -0.540  0.314E-16  0.157E-16  0.157E-16
 -0.530  0.783E-16  0.392E-16  0.392E-16
 -0.520  0.180E-15  0.899E-16  0.899E-16
 -0.510  0.405E-15  0.203E-15  0.203E-15
 -0.500  0.900E-15  0.450E-15  0.450E-15
 -0.490  0.197E-14  0.986E-15  0.986E-15
 -0.480  0.427E-14  0.213E-14  0.213E-14
 -0.470  0.915E-14  0.457E-14  0.457E-14
 -0.460  0.194E-13  0.970E-14  0.970E-14
 -0.450  0.406E-13  0.203E-13  0.203E-13
 -0.440  0.843E-13  0.421E-13  0.421E-13
 -0.430  0.173E-12  0.864E-13  0.864E-13
 -0.420  0.351E-12  0.175E-12  0.175E-12
 -0.410  0.704E-12  0.352E-12  0.352E-12
 -0.400  0.140E-11  0.698E-12  0.698E-12
 -0.390  0.274E-11  0.137E-11  0.137E-11
 -0.380  0.533E-11  0.266E-11  0.266E-11
 -0.370  0.102E-10  0.512E-11  0.512E-11
 -0.360  0.195E-10  0.973E-11  0.973E-11
 -0.350  0.366E-10  0.183E-10  0.183E-10
 -0.340  0.681E-10  0.340E-10  0.340E-10
 -0.330  0.125E-09  0.626E-10  0.626E-10
 -0.320  0.228E-09  0.114E-09  0.114E-09
 -0.310  0.410E-09  0.205E-09  0.205E-09
 -0.300  0.731E-09  0.365E-09  0.365E-09
 -0.290  0.129E-08  0.644E-09  0.644E-09
 -0.280  0.224E-08  0.112E-08  0.112E-08
 -0.270  0.387E-08  0.193E-08  0.193E-08
 -0.260  0.659E-08  0.330E-08  0.330E-08
 -0.250  0.111E-07  0.556E-08  0.556E-08
 -0.240  0.185E-07  0.927E-08  0.927E-08
 -0.230  0.306E-07  0.153E-07  0.153E-07
 -0.220  0.500E-07  0.250E-07  0.250E-07
 -0.210  0.807E-07  0.403E-07  0.403E-07
 -0.200  0.129E-06  0.644E-07  0.644E-07
 -0.190  0.204E-06  0.102E-06  0.102E-06
 -0.180  0.318E-06  0.159E-06  0.159E-06
 -0.170  0.492E-06  0.246E-06  0.246E-06
 -0.160  0.753E-06  0.376E-06  0.376E-06
 -0.150  0.114E-05  0.569E-06  0.569E-06
 -0.140  0.170E-05  0.852E-06  0.852E-06
 -0.130  0.252E-05  0.126E-05  0.126E-05
 -0.120  0.369E-05  0.185E-05  0.185E-05
 -0.110  0.535E-05  0.268E-05  0.268E-05
 -0.100  0.767E-05  0.384E-05  0.384E-05
 -0.090  0.109E-04  0.544E-05  0.544E-05
 -0.080  0.153E-04  0.763E-05  0.763E-05
 -0.070  0.212E-04  0.106E-04  0.106E-04
 -0.060  0.290E-04  0.145E-04  0.145E-04
 -0.050  0.395E-04  0.197E-04  0.197E-04
 -0.040  0.530E-04  0.265E-04  0.265E-04
 -0.030  0.705E-04  0.352E-04  0.352E-04
 -0.020  0.927E-04  0.464E-04  0.464E-04
 -0.010  0.121E-03  0.604E-04  0.604E-04
  0.000  0.156E-03  0.778E-04  0.778E-04
  0.010  0.198E-03  0.992E-04  0.992E-04
  0.020  0.250E-03  0.125E-03  0.125E-03
  0.030  0.313E-03  0.156E-03  0.156E-03
  0.040  0.387E-03  0.194E-03  0.194E-03
  0.050  0.475E-03  0.238E-03  0.238E-03
  0.060  0.577E-03  0.289E-03  0.289E-03
  0.070  0.695E-03  0.347E-03  0.347E-03
  0.080  0.829E-03  0.415E-03  0.415E-03
  0.090  0.982E-03  0.491E-03  0.491E-03
  0.100  0.115E-02  0.577E-03  0.577E-03
  0.110  0.135E-02  0.674E-03  0.674E-03
  0.120  0.156E-02  0.782E-03  0.782E-03
  0.130  0.180E-02  0.902E-03  0.902E-03
  0.140  0.207E-02  0.104E-02  0.104E-02
  0.150  0.237E-02  0.118E-02  0.118E-02
  0.160  0.270E-02  0.135E-02  0.135E-02
  0.170  0.307E-02  0.154E-02  0.154E-02
  0.180  0.349E-02  0.175E-02  0.175E-02
  0.190  0.396E-02  0.198E-02  0.198E-02
  0.200  0.450E-02  0.225E-02  0.225E-02
  0.210  0.510E-02  0.255E-02  0.255E-02
  0.220  0.579E-02  0.289E-02  0.289E-02
  0.230  0.656E-02  0.328E-02  0.328E-02
  0.240  0.743E-02  0.371E-02  0.371E-02
  0.250  0.840E-02  0.420E-02  0.420E-02
  0.260  0.948E-02  0.474E-02  0.474E-02
  0.270  0.107E-01  0.533E-02  0.533E-02
  0.280  0.120E-01  0.598E-02  0.598E-02
  0.290  0.133E-01  0.667E-02  0.667E-02
  0.300  0.148E-01  0.741E-02  0.741E-02
  0.310  0.163E-01  0.817E-02  0.817E-02
  0.320  0.179E-01  0.896E-02  0.896E-02
  0.330  0.195E-01  0.975E-02  0.975E-02
  0.340  0.211E-01  0.105E-01  0.105E-01
  0.350  0.226E-01  0.113E-01  0.113E-01
  0.360  0.240E-01  0.120E-01  0.120E-01
  0.370  0.253E-01  0.126E-01  0.126E-01
  0.380  0.264E-01  0.132E-01  0.132E-01
  0.390  0.273E-01  0.137E-01  0.137E-01
  0.400  0.280E-01  0.140E-01  0.140E-01
  0.410  0.285E-01  0.143E-01  0.143E-01
  0.420  0.288E-01  0.144E-01  0.144E-01
  0.430  0.288E-01  0.144E-01  0.144E-01
  0.440  0.286E-01  0.143E-01  0.143E-01
  0.450  0.281E-01  0.141E-01  0.141E-01
  0.460  0.275E-01  0.137E-01  0.137E-01
  0.470  0.266E-01  0.133E-01  0.133E-01
  0.480  0.257E-01  0.128E-01  0.128E-01
  0.490  0.246E-01  0.123E-01  0.123E-01
  0.500  0.235E-01  0.118E-01  0.118E-01
  0.510  0.224E-01  0.112E-01  0.112E-01
  0.520  0.212E-01  0.106E-01  0.106E-01
  0.530  0.200E-01  0.100E-01  0.100E-01
  0.540  0.190E-01  0.948E-02  0.948E-02
  0.550  0.179E-01  0.896E-02  0.896E-02
  0.560  0.170E-01  0.848E-02  0.848E-02
  0.570  0.161E-01  0.805E-02  0.805E-02
  0.580  0.153E-01  0.766E-02  0.766E-02
  0.590  0.146E-01  0.731E-02  0.731E-02
  0.600  0.140E-01  0.701E-02  0.701E-02
  0.610  0.135E-01  0.674E-02  0.674E-02
  0.620  0.130E-01  0.651E-02  0.651E-02
  0.630  0.126E-01  0.632E-02  0.632E-02
  0.640  0.123E-01  0.614E-02  0.614E-02
  0.650  0.120E-01  0.600E-02  0.600E-02
  0.660  0.117E-01  0.587E-02  0.587E-02
  0.670  0.115E-01  0.575E-02  0.575E-02
  0.680  0.113E-01  0.564E-02  0.564E-02
  0.690  0.111E-01  0.555E-02  0.555E-02
  0.700  0.109E-01  0.545E-02  0.545E-02
  0.710  0.107E-01  0.537E-02  0.537E-02
  0.720  0.106E-01  0.528E-02  0.528E-02
  0.730  0.104E-01  0.520E-02  0.520E-02
  0.740  0.102E-01  0.512E-02  0.512E-02
  0.750  0.101E-01  0.504E-02  0.504E-02
  0.760  0.991E-02  0.496E-02  0.496E-02
  0.770  0.975E-02  0.487E-02  0.487E-02
  0.780  0.959E-02  0.480E-02  0.480E-02
  0.790  0.943E-02  0.472E-02  0.472E-02
  0.800  0.928E-02  0.464E-02  0.464E-02
  0.810  0.912E-02  0.456E-02  0.456E-02
  0.820  0.897E-02  0.449E-02  0.449E-02
  0.830  0.883E-02  0.441E-02  0.441E-02
  0.840  0.868E-02  0.434E-02  0.434E-02
  0.850  0.854E-02  0.427E-02  0.427E-02
  0.860  0.841E-02  0.421E-02  0.421E-02
  0.870  0.828E-02  0.414E-02  0.414E-02
  0.880  0.816E-02  0.408E-02  0.408E-02
  0.890  0.804E-02  0.402E-02  0.402E-02
  0.900  0.792E-02  0.396E-02  0.396E-02
  0.910  0.782E-02  0.391E-02  0.391E-02
  0.920  0.771E-02  0.386E-02  0.386E-02
  0.930  0.761E-02  0.381E-02  0.381E-02
  0.940  0.752E-02  0.376E-02  0.376E-02
  0.950  0.743E-02  0.372E-02  0.372E-02
  0.960  0.735E-02  0.367E-02  0.367E-02
  0.970  0.727E-02  0.363E-02  0.363E-02
  0.980  0.720E-02  0.360E-02  0.360E-02
  0.990  0.713E-02  0.356E-02  0.356E-02
  1.000  0.706E-02  0.353E-02  0.353E-02
  1.010  0.700E-02  0.350E-02  0.350E-02
  1.020  0.695E-02  0.348E-02  0.348E-02
  1.030  0.690E-02  0.345E-02  0.345E-02
  1.040  0.686E-02  0.343E-02  0.343E-02
  1.050  0.683E-02  0.341E-02  0.341E-02
  1.060  0.680E-02  0.340E-02  0.340E-02
  1.070  0.678E-02  0.339E-02  0.339E-02
  1.080  0.677E-02  0.338E-02  0.338E-02
  1.090  0.676E-02  0.338E-02  0.338E-02
  1.100  0.675E-02  0.337E-02  0.337E-02
  1.110  0.675E-02  0.337E-02  0.337E-02
  1.120  0.674E-02  0.337E-02  0.337E-02
  1.130  0.674E-02  0.337E-02  0.337E-02
  1.140  0.673E-02  0.337E-02  0.337E-02
  1.150  0.672E-02  0.336E-02  0.336E-02
  1.160  0.670E-02  0.335E-02  0.335E-02
  1.170  0.668E-02  0.334E-02  0.334E-02
  1.180  0.664E-02  0.332E-02  0.332E-02
  1.190  0.659E-02  0.330E-02  0.330E-02
  1.200  0.653E-02  0.327E-02  0.327E-02
  1.210  0.646E-02  0.323E-02  0.323E-02
  1.220  0.637E-02  0.319E-02  0.319E-02
  1.230  0.628E-02  0.314E-02  0.314E-02
  1.240  0.616E-02  0.308E-02  0.308E-02
  1.250  0.604E-02  0.302E-02  0.302E-02
  1.260  0.591E-02  0.296E-02  0.296E-02
  1.270  0.577E-02  0.289E-02  0.289E-02
  1.280  0.563E-02  0.281E-02  0.281E-02
  1.290  0.548E-02  0.274E-02  0.274E-02
  1.300  0.533E-02  0.267E-02  0.267E-02
  1.310  0.518E-02  0.259E-02  0.259E-02
  1.320  0.503E-02  0.251E-02  0.251E-02
  1.330  0.488E-02  0.244E-02  0.244E-02
  1.340  0.474E-02  0.237E-02  0.237E-02
  1.350  0.459E-02  0.230E-02  0.230E-02
  1.360  0.446E-02  0.223E-02  0.223E-02
  1.370  0.433E-02  0.216E-02  0.216E-02
  1.380  0.420E-02  0.210E-02  0.210E-02
  1.390  0.409E-02  0.204E-02  0.204E-02
  1.400  0.397E-02  0.199E-02  0.199E-02
  1.410  0.387E-02  0.193E-02  0.193E-02
  1.420  0.376E-02  0.188E-02  0.188E-02
  1.430  0.367E-02  0.183E-02  0.183E-02
  1.440  0.358E-02  0.179E-02  0.179E-02
  1.450  0.349E-02  0.174E-02  0.174E-02
  1.460  0.341E-02  0.170E-02  0.170E-02
  1.470  0.333E-02  0.166E-02  0.166E-02
  1.480  0.325E-02  0.162E-02  0.162E-02
  1.490  0.318E-02  0.159E-02  0.159E-02
  1.500  0.311E-02  0.155E-02  0.155E-02
  1.510  0.304E-02  0.152E-02  0.152E-02
  1.520  0.297E-02  0.149E-02  0.149E-02
  1.530  0.291E-02  0.145E-02  0.145E-02
  1.540  0.285E-02  0.142E-02  0.142E-02
  1.550  0.279E-02  0.139E-02  0.139E-02
  1.560  0.273E-02  0.137E-02  0.137E-02
  1.570  0.267E-02  0.134E-02  0.134E-02
  1.580  0.262E-02  0.131E-02  0.131E-02
  1.590  0.256E-02  0.128E-02  0.128E-02
  1.600  0.251E-02  0.126E-02  0.126E-02
  1.610  0.246E-02  0.123E-02  0.123E-02
  1.620  0.241E-02  0.121E-02  0.121E-02
  1.630  0.236E-02  0.118E-02  0.118E-02
  1.640  0.231E-02  0.116E-02  0.116E-02
  1.650  0.227E-02  0.113E-02  0.113E-02
  1.660  0.222E-02  0.111E-02  0.111E-02
  1.670  0.217E-02  0.109E-02  0.109E-02
  1.680  0.213E-02  0.106E-02  0.106E-02
  1.690  0.209E-02  0.104E-02  0.104E-02
  1.700  0.204E-02  0.102E-02  0.102E-02
  1.710  0.200E-02  0.100E-02  0.100E-02
  1.720  0.196E-02  0.981E-03  0.981E-03
  1.730  0.192E-02  0.961E-03  0.961E-03
  1.740  0.188E-02  0.941E-03  0.941E-03
  1.750  0.184E-02  0.922E-03  0.922E-03
  1.760  0.181E-02  0.903E-03  0.903E-03
  1.770  0.177E-02  0.884E-03  0.884E-03
  1.780  0.173E-02  0.866E-03  0.866E-03
  1.790  0.170E-02  0.848E-03  0.848E-03
  1.800  0.166E-02  0.831E-03  0.831E-03
  1.810  0.163E-02  0.814E-03  0.814E-03
  1.820  0.159E-02  0.797E-03  0.797E-03
  1.830  0.156E-02  0.780E-03  0.780E-03
  1.840  0.153E-02  0.764E-03  0.764E-03
  1.850  0.150E-02  0.749E-03  0.749E-03
  1.860  0.147E-02  0.733E-03  0.733E-03
  1.870  0.144E-02  0.718E-03  0.718E-03
  1.880  0.141E-02  0.703E-03  0.703E-03
  1.890  0.138E-02  0.688E-03  0.688E-03
  1.900  0.135E-02  0.674E-03  0.674E-03
  1.910  0.132E-02  0.660E-03  0.660E-03
  1.920  0.129E-02  0.647E-03  0.647E-03
  1.930  0.127E-02  0.633E-03  0.633E-03
  1.940  0.124E-02  0.620E-03  0.620E-03
  1.950  0.122E-02  0.608E-03  0.608E-03
  1.960  0.119E-02  0.595E-03  0.595E-03
  1.970  0.117E-02  0.583E-03  0.583E-03
  1.980  0.114E-02  0.571E-03  0.571E-03
  1.990  0.112E-02  0.559E-03  0.559E-03
  2.000  0.110E-02  0.548E-03  0.548E-03
  2.010  0.107E-02  0.537E-03  0.537E-03
  2.020  0.105E-02  0.526E-03  0.526E-03
  2.030  0.103E-02  0.516E-03  0.516E-03
  2.040  0.101E-02  0.506E-03  0.506E-03
  2.050  0.992E-03  0.496E-03  0.496E-03
  2.060  0.972E-03  0.486E-03  0.486E-03
  2.070  0.954E-03  0.477E-03  0.477E-03
  2.080  0.936E-03  0.468E-03  0.468E-03
  2.090  0.918E-03  0.459E-03  0.459E-03
  2.100  0.901E-03  0.451E-03  0.451E-03
  2.110  0.885E-03  0.443E-03  0.443E-03
  2.120  0.869E-03  0.435E-03  0.435E-03
  2.130  0.854E-03  0.427E-03  0.427E-03
  2.140  0.840E-03  0.420E-03  0.420E-03
  2.150  0.826E-03  0.413E-03  0.413E-03
  2.160  0.813E-03  0.406E-03  0.406E-03
  2.170  0.800E-03  0.400E-03  0.400E-03
  2.180  0.788E-03  0.394E-03  0.394E-03
  2.190  0.777E-03  0.388E-03  0.388E-03
  2.200  0.766E-03  0.383E-03  0.383E-03
  2.210  0.756E-03  0.378E-03  0.378E-03
  2.220  0.747E-03  0.373E-03  0.373E-03
  2.230  0.738E-03  0.369E-03  0.369E-03
  2.240  0.730E-03  0.365E-03  0.365E-03
  2.250  0.723E-03  0.361E-03  0.361E-03
  2.260  0.716E-03  0.358E-03  0.358E-03
  2.270  0.710E-03  0.355E-03  0.355E-03
  2.280  0.705E-03  0.353E-03  0.353E-03
  2.290  0.701E-03  0.350E-03  0.350E-03
  2.300  0.697E-03  0.349E-03  0.349E-03
  2.310  0.694E-03  0.347E-03  0.347E-03
  2.320  0.692E-03  0.346E-03  0.346E-03
  2.330  0.691E-03  0.346E-03  0.346E-03
  2.340  0.691E-03  0.345E-03  0.345E-03
  2.350  0.691E-03  0.345E-03  0.345E-03
  2.360  0.692E-03  0.346E-03  0.346E-03
  2.370  0.694E-03  0.347E-03  0.347E-03
  2.380  0.696E-03  0.348E-03  0.348E-03
  2.390  0.699E-03  0.350E-03  0.350E-03
  2.400  0.703E-03  0.351E-03  0.351E-03
  2.410  0.707E-03  0.354E-03  0.354E-03
  2.420  0.712E-03  0.356E-03  0.356E-03
  2.430  0.716E-03  0.358E-03  0.358E-03
  2.440  0.721E-03  0.361E-03  0.361E-03
  2.450  0.726E-03  0.363E-03  0.363E-03
  2.460  0.730E-03  0.365E-03  0.365E-03
  2.470  0.733E-03  0.366E-03  0.366E-03
  2.480  0.735E-03  0.368E-03  0.368E-03
  2.490  0.736E-03  0.368E-03  0.368E-03
  2.500  0.735E-03  0.367E-03  0.367E-03
  2.510  0.731E-03  0.366E-03  0.366E-03
  2.520  0.725E-03  0.362E-03  0.362E-03
  2.530  0.716E-03  0.358E-03  0.358E-03
  2.540  0.703E-03  0.351E-03  0.351E-03
  2.550  0.687E-03  0.343E-03  0.343E-03
  2.560  0.666E-03  0.333E-03  0.333E-03
  2.570  0.642E-03  0.321E-03  0.321E-03
  2.580  0.613E-03  0.307E-03  0.307E-03
  2.590  0.581E-03  0.290E-03  0.290E-03
  2.600  0.544E-03  0.272E-03  0.272E-03
  2.610  0.505E-03  0.252E-03  0.252E-03
  2.620  0.462E-03  0.231E-03  0.231E-03
  2.630  0.417E-03  0.209E-03  0.209E-03
  2.640  0.371E-03  0.185E-03  0.185E-03
  2.650  0.323E-03  0.162E-03  0.162E-03
  2.660  0.276E-03  0.138E-03  0.138E-03
  2.670  0.229E-03  0.115E-03  0.115E-03
  2.680  0.184E-03  0.921E-04  0.921E-04
  2.690  0.142E-03  0.708E-04  0.708E-04
  2.700  0.102E-03  0.510E-04  0.510E-04
  2.710  0.662E-04  0.331E-04  0.331E-04
  2.720  0.343E-04  0.171E-04  0.171E-04
  2.730  0.671E-05  0.335E-05  0.335E-05
  2.740 -0.164E-04 -0.822E-05 -0.822E-05
  2.750 -0.352E-04 -0.176E-04 -0.176E-04
  2.760 -0.496E-04 -0.248E-04 -0.248E-04
  2.770 -0.601E-04 -0.300E-04 -0.300E-04
  2.780 -0.669E-04 -0.335E-04 -0.335E-04
  2.790 -0.705E-04 -0.353E-04 -0.353E-04
  2.800 -0.714E-04 -0.357E-04 -0.357E-04
  2.810 -0.700E-04 -0.350E-04 -0.350E-04
  2.820 -0.669E-04 -0.334E-04 -0.334E-04
  2.830 -0.625E-04 -0.312E-04 -0.312E-04
  2.840 -0.571E-04 -0.286E-04 -0.286E-04
  2.850 -0.513E-04 -0.257E-04 -0.257E-04
  2.860 -0.453E-04 -0.227E-04 -0.227E-04
  2.870 -0.394E-04 -0.197E-04 -0.197E-04
  2.880 -0.337E-04 -0.169E-04 -0.169E-04
  2.890 -0.284E-04 -0.142E-04 -0.142E-04
  2.900 -0.237E-04 -0.118E-04 -0.118E-04
  2.910 -0.194E-04 -0.970E-05 -0.970E-05
  2.920 -0.157E-04 -0.786E-05 -0.786E-05
  2.930 -0.126E-04 -0.628E-05 -0.628E-05
  2.940 -0.991E-05 -0.496E-05 -0.496E-05
  2.950 -0.773E-05 -0.386E-05 -0.386E-05
  2.960 -0.595E-05 -0.297E-05 -0.297E-05
  2.970 -0.452E-05 -0.226E-05 -0.226E-05
  2.980 -0.340E-05 -0.170E-05 -0.170E-05
  2.990 -0.252E-05 -0.126E-05 -0.126E-05
  3.000 -0.185E-05 -0.926E-06 -0.926E-06
  3.010 -0.134E-05 -0.672E-06 -0.672E-06
  3.020 -0.963E-06 -0.482E-06 -0.482E-06
  3.030 -0.683E-06 -0.341E-06 -0.341E-06
  3.040 -0.478E-06 -0.239E-06 -0.239E-06
  3.050 -0.331E-06 -0.166E-06 -0.166E-06
  3.060 -0.227E-06 -0.113E-06 -0.113E-06
  3.070 -0.153E-06 -0.767E-07 -0.767E-07
  3.080 -0.103E-06 -0.514E-07 -0.514E-07
  3.090 -0.680E-07 -0.340E-07 -0.340E-07
  3.100 -0.445E-07 -0.222E-07 -0.222E-07
  3.110 -0.288E-07 -0.144E-07 -0.144E-07
  3.120 -0.184E-07 -0.921E-08 -0.921E-08
  3.130 -0.116E-07 -0.582E-08 -0.582E-08
  3.140 -0.729E-08 -0.364E-08 -0.364E-08
  3.150 -0.451E-08 -0.225E-08 -0.225E-08
  3.160 -0.276E-08 -0.138E-08 -0.138E-08
  3.170 -0.167E-08 -0.834E-09 -0.834E-09
  3.180 -0.998E-09 -0.499E-09 -0.499E-09
  3.190 -0.590E-09 -0.295E-09 -0.295E-09
  3.200 -0.346E-09 -0.173E-09 -0.173E-09
  3.210 -0.198E-09 -0.992E-10 -0.992E-10
  3.220 -0.114E-09 -0.568E-10 -0.568E-10
  3.230 -0.639E-10 -0.319E-10 -0.319E-10
  3.240 -0.356E-10 -0.178E-10 -0.178E-10
  3.250 -0.177E-10 -0.886E-11 -0.886E-11
  3.260 -0.824E-11 -0.412E-11 -0.412E-11
  3.270 -0.266E-11 -0.133E-11 -0.133E-11
  3.280  0.228E-11  0.114E-11  0.114E-11
  3.290  0.101E-10  0.506E-11  0.506E-11
  3.300  0.201E-10  0.100E-10  0.100E-10
  3.310  0.393E-10  0.197E-10  0.197E-10
  3.320  0.763E-10  0.381E-10  0.381E-10
  3.330  0.146E-09  0.731E-10  0.731E-10
  3.340  0.278E-09  0.139E-09  0.139E-09
  3.350  0.521E-09  0.260E-09  0.260E-09
  3.360  0.967E-09  0.484E-09  0.484E-09
  3.370  0.178E-08  0.888E-09  0.888E-09
  3.380  0.323E-08  0.161E-08  0.161E-08
  3.390  0.580E-08  0.290E-08  0.290E-08
  3.400  0.103E-07  0.516E-08  0.516E-08
  3.410  0.181E-07  0.907E-08  0.907E-08
  3.420  0.316E-07  0.158E-07  0.158E-07
  3.430  0.543E-07  0.272E-07  0.272E-07
  3.440  0.925E-07  0.463E-07  0.463E-07
  3.450  0.156E-06  0.779E-07  0.779E-07
  3.460  0.260E-06  0.130E-06  0.130E-06
  3.470  0.428E-06  0.214E-06  0.214E-06
  3.480  0.698E-06  0.349E-06  0.349E-06
  3.490  0.113E-05  0.563E-06  0.563E-06
  3.500  0.180E-05  0.899E-06  0.899E-06
  3.510  0.284E-05  0.142E-05  0.142E-05
  3.520  0.444E-05  0.222E-05  0.222E-05
  3.530  0.686E-05  0.343E-05  0.343E-05
  3.540  0.105E-04  0.525E-05  0.525E-05
  3.550  0.159E-04  0.794E-05  0.794E-05
  3.560  0.238E-04  0.119E-04  0.119E-04
  3.570  0.352E-04  0.176E-04  0.176E-04
  3.580  0.517E-04  0.258E-04  0.258E-04
  3.590  0.749E-04  0.375E-04  0.375E-04
  3.600  0.108E-03  0.538E-04  0.538E-04
  3.610  0.153E-03  0.764E-04  0.764E-04
  3.620  0.215E-03  0.107E-03  0.107E-03
  3.630  0.299E-03  0.150E-03  0.150E-03
  3.640  0.412E-03  0.206E-03  0.206E-03
  3.650  0.562E-03  0.281E-03  0.281E-03
  3.660  0.758E-03  0.379E-03  0.379E-03
  3.670  0.101E-02  0.507E-03  0.507E-03
  3.680  0.134E-02  0.671E-03  0.671E-03
  3.690  0.176E-02  0.879E-03  0.879E-03
  3.700  0.228E-02  0.114E-02  0.114E-02
  3.710  0.293E-02  0.146E-02  0.146E-02
  3.720  0.373E-02  0.186E-02  0.186E-02
  3.730  0.470E-02  0.235E-02  0.235E-02
  3.740  0.587E-02  0.294E-02  0.294E-02
  3.750  0.727E-02  0.364E-02  0.364E-02
  3.760  0.892E-02  0.446E-02  0.446E-02
  3.770  0.108E-01  0.542E-02  0.542E-02
  3.780  0.131E-01  0.653E-02  0.653E-02
  3.790  0.156E-01  0.780E-02  0.780E-02
  3.800  0.185E-01  0.924E-02  0.924E-02
  3.810  0.217E-01  0.109E-01  0.109E-01
  3.820  0.253E-01  0.126E-01  0.126E-01
  3.830  0.292E-01  0.146E-01  0.146E-01
  3.840  0.335E-01  0.168E-01  0.168E-01
  3.850  0.381E-01  0.190E-01  0.190E-01
  3.860  0.430E-01  0.215E-01  0.215E-01
  3.870  0.481E-01  0.241E-01  0.241E-01
  3.880  0.534E-01  0.267E-01  0.267E-01
  3.890  0.589E-01  0.294E-01  0.294E-01
  3.900  0.644E-01  0.322E-01  0.322E-01
  3.910  0.699E-01  0.350E-01  0.350E-01
  3.920  0.753E-01  0.376E-01  0.376E-01
  3.930  0.805E-01  0.402E-01  0.402E-01
  3.940  0.854E-01  0.427E-01  0.427E-01
  3.950  0.899E-01  0.449E-01  0.449E-01
  3.960  0.939E-01  0.469E-01  0.469E-01
  3.970  0.973E-01  0.487E-01  0.487E-01
  3.980  0.100E+00  0.501E-01  0.501E-01
  3.990  0.102E+00  0.511E-01  0.511E-01
  4.000  0.104E+00  0.518E-01  0.518E-01
  4.010  0.104E+00  0.521E-01  0.521E-01
  4.020  0.104E+00  0.520E-01  0.520E-01
  4.030  0.103E+00  0.516E-01  0.516E-01
  4.040  0.102E+00  0.508E-01  0.508E-01
  4.050  0.995E-01  0.498E-01  0.498E-01
  4.060  0.968E-01  0.484E-01  0.484E-01
  4.070  0.936E-01  0.468E-01  0.468E-01
  4.080  0.901E-01  0.451E-01  0.451E-01
  4.090  0.864E-01  0.432E-01  0.432E-01
  4.100  0.825E-01  0.412E-01  0.412E-01
  4.110  0.786E-01  0.393E-01  0.393E-01
  4.120  0.748E-01  0.374E-01  0.374E-01
  4.130  0.711E-01  0.355E-01  0.355E-01
  4.140  0.676E-01  0.338E-01  0.338E-01
  4.150  0.645E-01  0.323E-01  0.323E-01
  4.160  0.618E-01  0.309E-01  0.309E-01
  4.170  0.594E-01  0.297E-01  0.297E-01
  4.180  0.576E-01  0.288E-01  0.288E-01
  4.190  0.562E-01  0.281E-01  0.281E-01
  4.200  0.554E-01  0.277E-01  0.277E-01
  4.210  0.552E-01  0.276E-01  0.276E-01
  4.220  0.556E-01  0.278E-01  0.278E-01
  4.230  0.567E-01  0.283E-01  0.283E-01
  4.240  0.585E-01  0.292E-01  0.292E-01
  4.250  0.611E-01  0.306E-01  0.306E-01
  4.260  0.646E-01  0.323E-01  0.323E-01
  4.270  0.691E-01  0.345E-01  0.345E-01
  4.280  0.746E-01  0.373E-01  0.373E-01
  4.290  0.811E-01  0.405E-01  0.405E-01
  4.300  0.887E-01  0.444E-01  0.444E-01
  4.310  0.975E-01  0.488E-01  0.488E-01
  4.320  0.107E+00  0.537E-01  0.537E-01
  4.330  0.118E+00  0.592E-01  0.592E-01
  4.340  0.130E+00  0.652E-01  0.652E-01
  4.350  0.143E+00  0.717E-01  0.717E-01
  4.360  0.157E+00  0.784E-01  0.784E-01
  4.370  0.171E+00  0.855E-01  0.855E-01
  4.380  0.185E+00  0.926E-01  0.926E-01
  4.390  0.200E+00  0.998E-01  0.998E-01
  4.400  0.213E+00  0.107E+00  0.107E+00
  4.410  0.227E+00  0.113E+00  0.113E+00
  4.420  0.239E+00  0.119E+00  0.119E+00
  4.430  0.250E+00  0.125E+00  0.125E+00
  4.440  0.259E+00  0.129E+00  0.129E+00
  4.450  0.266E+00  0.133E+00  0.133E+00
  4.460  0.271E+00  0.136E+00  0.136E+00
  4.470  0.275E+00  0.137E+00  0.137E+00
  4.480  0.276E+00  0.138E+00  0.138E+00
  4.490  0.274E+00  0.137E+00  0.137E+00
  4.500  0.271E+00  0.136E+00  0.136E+00
  4.510  0.266E+00  0.133E+00  0.133E+00
  4.520  0.260E+00  0.130E+00  0.130E+00
  4.530  0.252E+00  0.126E+00  0.126E+00
  4.540  0.243E+00  0.121E+00  0.121E+00
  4.550  0.233E+00  0.117E+00  0.117E+00
  4.560  0.223E+00  0.111E+00  0.111E+00
  4.570  0.212E+00  0.106E+00  0.106E+00
  4.580  0.202E+00  0.101E+00  0.101E+00
  4.590  0.192E+00  0.962E-01  0.962E-01
  4.600  0.183E+00  0.915E-01  0.915E-01
  4.610  0.174E+00  0.871E-01  0.871E-01
  4.620  0.166E+00  0.832E-01  0.832E-01
  4.630  0.159E+00  0.796E-01  0.796E-01
  4.640  0.153E+00  0.764E-01  0.764E-01
  4.650  0.147E+00  0.737E-01  0.737E-01
  4.660  0.143E+00  0.713E-01  0.713E-01
  4.670  0.138E+00  0.692E-01  0.692E-01
  4.680  0.135E+00  0.675E-01  0.675E-01
  4.690  0.132E+00  0.660E-01  0.660E-01
  4.700  0.130E+00  0.648E-01  0.648E-01
  4.710  0.128E+00  0.638E-01  0.638E-01
  4.720  0.126E+00  0.629E-01  0.629E-01
  4.730  0.124E+00  0.621E-01  0.621E-01
  4.740  0.123E+00  0.614E-01  0.614E-01
  4.750  0.122E+00  0.608E-01  0.608E-01
  4.760  0.120E+00  0.602E-01  0.602E-01
  4.770  0.119E+00  0.597E-01  0.597E-01
  4.780  0.118E+00  0.591E-01  0.591E-01
  4.790  0.117E+00  0.587E-01  0.587E-01
  4.800  0.116E+00  0.582E-01  0.582E-01
  4.810  0.115E+00  0.577E-01  0.577E-01
  4.820  0.114E+00  0.572E-01  0.572E-01
  4.830  0.113E+00  0.567E-01  0.567E-01
  4.840  0.112E+00  0.562E-01  0.562E-01
  4.850  0.112E+00  0.558E-01  0.558E-01
  4.860  0.111E+00  0.553E-01  0.553E-01
  4.870  0.110E+00  0.548E-01  0.548E-01
  4.880  0.109E+00  0.544E-01  0.544E-01
  4.890  0.108E+00  0.539E-01  0.539E-01
  4.900  0.107E+00  0.535E-01  0.535E-01
  4.910  0.106E+00  0.530E-01  0.530E-01
  4.920  0.105E+00  0.526E-01  0.526E-01
  4.930  0.104E+00  0.522E-01  0.522E-01
  4.940  0.103E+00  0.517E-01  0.517E-01
  4.950  0.103E+00  0.513E-01  0.513E-01
  4.960  0.102E+00  0.509E-01  0.509E-01
  4.970  0.101E+00  0.505E-01  0.505E-01
  4.980  0.100E+00  0.501E-01  0.501E-01
  4.990  0.995E-01  0.497E-01  0.497E-01
  5.000  0.987E-01  0.494E-01  0.494E-01
  5.010  0.980E-01  0.490E-01  0.490E-01
  5.020  0.972E-01  0.486E-01  0.486E-01
  5.030  0.965E-01  0.483E-01  0.483E-01
  5.040  0.958E-01  0.479E-01  0.479E-01
  5.050  0.951E-01  0.476E-01  0.476E-01
  5.060  0.944E-01  0.472E-01  0.472E-01
  5.070  0.938E-01  0.469E-01  0.469E-01
  5.080  0.931E-01  0.465E-01  0.465E-01
  5.090  0.924E-01  0.462E-01  0.462E-01
  5.100  0.918E-01  0.459E-01  0.459E-01
  5.110  0.912E-01  0.456E-01  0.456E-01
  5.120  0.906E-01  0.453E-01  0.453E-01
  5.130  0.900E-01  0.450E-01  0.450E-01
  5.140  0.894E-01  0.447E-01  0.447E-01
  5.150  0.888E-01  0.444E-01  0.444E-01
  5.160  0.882E-01  0.441E-01  0.441E-01
  5.170  0.877E-01  0.438E-01  0.438E-01
  5.180  0.871E-01  0.436E-01  0.436E-01
  5.190  0.866E-01  0.433E-01  0.433E-01
  5.200  0.861E-01  0.430E-01  0.430E-01
  5.210  0.855E-01  0.428E-01  0.428E-01
  5.220  0.850E-01  0.425E-01  0.425E-01
  5.230  0.845E-01  0.423E-01  0.423E-01
  5.240  0.840E-01  0.420E-01  0.420E-01
  5.250  0.836E-01  0.418E-01  0.418E-01
  5.260  0.831E-01  0.416E-01  0.416E-01
  5.270  0.826E-01  0.413E-01  0.413E-01
  5.280  0.822E-01  0.411E-01  0.411E-01
  5.290  0.818E-01  0.409E-01  0.409E-01
  5.300  0.814E-01  0.407E-01  0.407E-01
  5.310  0.810E-01  0.405E-01  0.405E-01
  5.320  0.806E-01  0.403E-01  0.403E-01
  5.330  0.802E-01  0.401E-01  0.401E-01
  5.340  0.798E-01  0.399E-01  0.399E-01
  5.350  0.795E-01  0.397E-01  0.397E-01
  5.360  0.791E-01  0.396E-01  0.396E-01
  5.370  0.788E-01  0.394E-01  0.394E-01
  5.380  0.785E-01  0.393E-01  0.393E-01
  5.390  0.783E-01  0.391E-01  0.391E-01
  5.400  0.780E-01  0.390E-01  0.390E-01
  5.410  0.777E-01  0.389E-01  0.389E-01
  5.420  0.775E-01  0.388E-01  0.388E-01
  5.430  0.773E-01  0.387E-01  0.387E-01
  5.440  0.771E-01  0.386E-01  0.386E-01
  5.450  0.770E-01  0.385E-01  0.385E-01
  5.460  0.768E-01  0.384E-01  0.384E-01
  5.470  0.767E-01  0.384E-01  0.384E-01
  5.480  0.766E-01  0.383E-01  0.383E-01
  5.490  0.766E-01  0.383E-01  0.383E-01
  5.500  0.766E-01  0.383E-01  0.383E-01
  5.510  0.766E-01  0.383E-01  0.383E-01
  5.520  0.766E-01  0.383E-01  0.383E-01
  5.530  0.766E-01  0.383E-01  0.383E-01
  5.540  0.768E-01  0.384E-01  0.384E-01
  5.550  0.769E-01  0.385E-01  0.385E-01
  5.560  0.771E-01  0.386E-01  0.386E-01
  5.570  0.774E-01  0.387E-01  0.387E-01
  5.580  0.777E-01  0.389E-01  0.389E-01
  5.590  0.782E-01  0.391E-01  0.391E-01
  5.600  0.788E-01  0.394E-01  0.394E-01
  5.610  0.795E-01  0.398E-01  0.398E-01
  5.620  0.805E-01  0.403E-01  0.403E-01
  5.630  0.817E-01  0.409E-01  0.409E-01
  5.640  0.833E-01  0.417E-01  0.417E-01
  5.650  0.853E-01  0.427E-01  0.427E-01
  5.660  0.878E-01  0.439E-01  0.439E-01
  5.670  0.910E-01  0.455E-01  0.455E-01
  5.680  0.950E-01  0.475E-01  0.475E-01
  5.690  0.999E-01  0.500E-01  0.500E-01
  5.700  0.106E+00  0.530E-01  0.530E-01
  5.710  0.113E+00  0.566E-01  0.566E-01
  5.720  0.122E+00  0.610E-01  0.610E-01
  5.730  0.133E+00  0.663E-01  0.663E-01
  5.740  0.145E+00  0.724E-01  0.724E-01
  5.750  0.159E+00  0.795E-01  0.795E-01
  5.760  0.175E+00  0.876E-01  0.876E-01
  5.770  0.194E+00  0.968E-01  0.968E-01
  5.780  0.214E+00  0.107E+00  0.107E+00
  5.790  0.237E+00  0.118E+00  0.118E+00
  5.800  0.261E+00  0.130E+00  0.130E+00
  5.810  0.287E+00  0.143E+00  0.143E+00
  5.820  0.314E+00  0.157E+00  0.157E+00
  5.830  0.341E+00  0.171E+00  0.171E+00
  5.840  0.369E+00  0.185E+00  0.185E+00
  5.850  0.397E+00  0.198E+00  0.198E+00
  5.860  0.423E+00  0.211E+00  0.211E+00
  5.870  0.448E+00  0.224E+00  0.224E+00
  5.880  0.470E+00  0.235E+00  0.235E+00
  5.890  0.489E+00  0.245E+00  0.245E+00
  5.900  0.505E+00  0.252E+00  0.252E+00
  5.910  0.517E+00  0.258E+00  0.258E+00
  5.920  0.524E+00  0.262E+00  0.262E+00
  5.930  0.527E+00  0.264E+00  0.264E+00
  5.940  0.526E+00  0.263E+00  0.263E+00
  5.950  0.520E+00  0.260E+00  0.260E+00
  5.960  0.510E+00  0.255E+00  0.255E+00
  5.970  0.497E+00  0.248E+00  0.248E+00
  5.980  0.480E+00  0.240E+00  0.240E+00
  5.990  0.461E+00  0.231E+00  0.231E+00
  6.000  0.440E+00  0.220E+00  0.220E+00
  6.010  0.418E+00  0.209E+00  0.209E+00
  6.020  0.395E+00  0.197E+00  0.197E+00
  6.030  0.372E+00  0.186E+00  0.186E+00
  6.040  0.349E+00  0.175E+00  0.175E+00
  6.050  0.328E+00  0.164E+00  0.164E+00
  6.060  0.307E+00  0.154E+00  0.154E+00
  6.070  0.288E+00  0.144E+00  0.144E+00
  6.080  0.271E+00  0.135E+00  0.135E+00
  6.090  0.255E+00  0.127E+00  0.127E+00
  6.100  0.241E+00  0.120E+00  0.120E+00
  6.110  0.229E+00  0.114E+00  0.114E+00
  6.120  0.218E+00  0.109E+00  0.109E+00
  6.130  0.208E+00  0.104E+00  0.104E+00
  6.140  0.200E+00  0.100E+00  0.100E+00
  6.150  0.193E+00  0.966E-01  0.966E-01
  6.160  0.187E+00  0.936E-01  0.936E-01
  6.170  0.182E+00  0.910E-01  0.910E-01
  6.180  0.177E+00  0.887E-01  0.887E-01
  6.190  0.174E+00  0.868E-01  0.868E-01
  6.200  0.170E+00  0.852E-01  0.852E-01
  6.210  0.168E+00  0.838E-01  0.838E-01
  6.220  0.165E+00  0.826E-01  0.826E-01
  6.230  0.163E+00  0.817E-01  0.817E-01
  6.240  0.162E+00  0.809E-01  0.809E-01
  6.250  0.160E+00  0.802E-01  0.802E-01
  6.260  0.160E+00  0.798E-01  0.798E-01
  6.270  0.159E+00  0.794E-01  0.794E-01
  6.280  0.158E+00  0.792E-01  0.792E-01
  6.290  0.158E+00  0.790E-01  0.790E-01
  6.300  0.158E+00  0.790E-01  0.790E-01
  6.310  0.158E+00  0.789E-01  0.789E-01
  6.320  0.158E+00  0.789E-01  0.789E-01
  6.330  0.158E+00  0.789E-01  0.789E-01
  6.340  0.158E+00  0.788E-01  0.788E-01
  6.350  0.157E+00  0.787E-01  0.787E-01
  6.360  0.157E+00  0.786E-01  0.786E-01
  6.370  0.157E+00  0.784E-01  0.784E-01
  6.380  0.156E+00  0.781E-01  0.781E-01
  6.390  0.156E+00  0.778E-01  0.778E-01
  6.400  0.155E+00  0.774E-01  0.774E-01
  6.410  0.154E+00  0.770E-01  0.770E-01
  6.420  0.153E+00  0.765E-01  0.765E-01
  6.430  0.152E+00  0.759E-01  0.759E-01
  6.440  0.151E+00  0.754E-01  0.754E-01
  6.450  0.150E+00  0.748E-01  0.748E-01
  6.460  0.148E+00  0.742E-01  0.742E-01
  6.470  0.147E+00  0.735E-01  0.735E-01
  6.480  0.146E+00  0.729E-01  0.729E-01
  6.490  0.144E+00  0.722E-01  0.722E-01
  6.500  0.143E+00  0.716E-01  0.716E-01
  6.510  0.142E+00  0.709E-01  0.709E-01
  6.520  0.141E+00  0.703E-01  0.703E-01
  6.530  0.139E+00  0.697E-01  0.697E-01
  6.540  0.138E+00  0.690E-01  0.690E-01
  6.550  0.137E+00  0.684E-01  0.684E-01
  6.560  0.136E+00  0.678E-01  0.678E-01
  6.570  0.134E+00  0.672E-01  0.672E-01
  6.580  0.133E+00  0.666E-01  0.666E-01
  6.590  0.132E+00  0.660E-01  0.660E-01
  6.600  0.131E+00  0.654E-01  0.654E-01
  6.610  0.130E+00  0.649E-01  0.649E-01
  6.620  0.129E+00  0.643E-01  0.643E-01
  6.630  0.128E+00  0.638E-01  0.638E-01
  6.640  0.127E+00  0.633E-01  0.633E-01
  6.650  0.126E+00  0.629E-01  0.629E-01
  6.660  0.125E+00  0.624E-01  0.624E-01
  6.670  0.124E+00  0.620E-01  0.620E-01
  6.680  0.123E+00  0.616E-01  0.616E-01
  6.690  0.123E+00  0.613E-01  0.613E-01
  6.700  0.122E+00  0.610E-01  0.610E-01
  6.710  0.121E+00  0.607E-01  0.607E-01
  6.720  0.121E+00  0.604E-01  0.604E-01
  6.730  0.120E+00  0.601E-01  0.601E-01
  6.740  0.120E+00  0.599E-01  0.599E-01
  6.750  0.119E+00  0.597E-01  0.597E-01
  6.760  0.119E+00  0.595E-01  0.595E-01
  6.770  0.119E+00  0.593E-01  0.593E-01
  6.780  0.118E+00  0.591E-01  0.591E-01
  6.790  0.118E+00  0.589E-01  0.589E-01
  6.800  0.117E+00  0.587E-01  0.587E-01
  6.810  0.117E+00  0.586E-01  0.586E-01
  6.820  0.117E+00  0.584E-01  0.584E-01
  6.830  0.116E+00  0.582E-01  0.582E-01
  6.840  0.116E+00  0.580E-01  0.580E-01
  6.850  0.116E+00  0.578E-01  0.578E-01
  6.860  0.115E+00  0.576E-01  0.576E-01
  6.870  0.115E+00  0.575E-01  0.575E-01
  6.880  0.115E+00  0.573E-01  0.573E-01
  6.890  0.114E+00  0.571E-01  0.571E-01
  6.900  0.114E+00  0.569E-01  0.569E-01
  6.910  0.113E+00  0.567E-01  0.567E-01
  6.920  0.113E+00  0.565E-01  0.565E-01
  6.930  0.113E+00  0.564E-01  0.564E-01
  6.940  0.112E+00  0.562E-01  0.562E-01
  6.950  0.112E+00  0.560E-01  0.560E-01
  6.960  0.112E+00  0.558E-01  0.558E-01
  6.970  0.111E+00  0.556E-01  0.556E-01
  6.980  0.111E+00  0.555E-01  0.555E-01
  6.990  0.111E+00  0.553E-01  0.553E-01
  7.000  0.110E+00  0.551E-01  0.551E-01
  7.010  0.110E+00  0.550E-01  0.550E-01
  7.020  0.110E+00  0.548E-01  0.548E-01
  7.030  0.109E+00  0.547E-01  0.547E-01
  7.040  0.109E+00  0.545E-01  0.545E-01
  7.050  0.109E+00  0.543E-01  0.543E-01
  7.060  0.108E+00  0.542E-01  0.542E-01
  7.070  0.108E+00  0.541E-01  0.541E-01
  7.080  0.108E+00  0.539E-01  0.539E-01
  7.090  0.108E+00  0.538E-01  0.538E-01
  7.100  0.107E+00  0.537E-01  0.537E-01
  7.110  0.107E+00  0.535E-01  0.535E-01
  7.120  0.107E+00  0.534E-01  0.534E-01
  7.130  0.107E+00  0.533E-01  0.533E-01
  7.140  0.106E+00  0.532E-01  0.532E-01
  7.150  0.106E+00  0.531E-01  0.531E-01
  7.160  0.106E+00  0.530E-01  0.530E-01
  7.170  0.106E+00  0.529E-01  0.529E-01
  7.180  0.105E+00  0.527E-01  0.527E-01
  7.190  0.105E+00  0.526E-01  0.526E-01
  7.200  0.105E+00  0.525E-01  0.525E-01
  7.210  0.105E+00  0.524E-01  0.524E-01
  7.220  0.105E+00  0.523E-01  0.523E-01
  7.230  0.104E+00  0.522E-01  0.522E-01
  7.240  0.104E+00  0.522E-01  0.522E-01
  7.250  0.104E+00  0.521E-01  0.521E-01
  7.260  0.104E+00  0.520E-01  0.520E-01
  7.270  0.104E+00  0.519E-01  0.519E-01
  7.280  0.104E+00  0.519E-01  0.519E-01
  7.290  0.104E+00  0.518E-01  0.518E-01
  7.300  0.104E+00  0.518E-01  0.518E-01
  7.310  0.104E+00  0.518E-01  0.518E-01
  7.320  0.104E+00  0.518E-01  0.518E-01
  7.330  0.104E+00  0.518E-01  0.518E-01
  7.340  0.104E+00  0.518E-01  0.518E-01
  7.350  0.104E+00  0.519E-01  0.519E-01
  7.360  0.104E+00  0.519E-01  0.519E-01
  7.370  0.104E+00  0.520E-01  0.520E-01
  7.380  0.104E+00  0.521E-01  0.521E-01
  7.390  0.104E+00  0.521E-01  0.521E-01
  7.400  0.104E+00  0.522E-01  0.522E-01
  7.410  0.104E+00  0.522E-01  0.522E-01
  7.420  0.104E+00  0.522E-01  0.522E-01
  7.430  0.104E+00  0.521E-01  0.521E-01
  7.440  0.104E+00  0.519E-01  0.519E-01
  7.450  0.103E+00  0.517E-01  0.517E-01
  7.460  0.103E+00  0.513E-01  0.513E-01
  7.470  0.102E+00  0.509E-01  0.509E-01
  7.480  0.101E+00  0.503E-01  0.503E-01
  7.490  0.991E-01  0.496E-01  0.496E-01
  7.500  0.975E-01  0.487E-01  0.487E-01
  7.510  0.956E-01  0.478E-01  0.478E-01
  7.520  0.934E-01  0.467E-01  0.467E-01
  7.530  0.911E-01  0.455E-01  0.455E-01
  7.540  0.885E-01  0.443E-01  0.443E-01
  7.550  0.859E-01  0.429E-01  0.429E-01
  7.560  0.832E-01  0.416E-01  0.416E-01
  7.570  0.804E-01  0.402E-01  0.402E-01
  7.580  0.777E-01  0.389E-01  0.389E-01
  7.590  0.751E-01  0.375E-01  0.375E-01
  7.600  0.726E-01  0.363E-01  0.363E-01
  7.610  0.703E-01  0.352E-01  0.352E-01
  7.620  0.682E-01  0.341E-01  0.341E-01
  7.630  0.665E-01  0.332E-01  0.332E-01
  7.640  0.650E-01  0.325E-01  0.325E-01
  7.650  0.638E-01  0.319E-01  0.319E-01
  7.660  0.629E-01  0.314E-01  0.314E-01
  7.670  0.622E-01  0.311E-01  0.311E-01
  7.680  0.619E-01  0.309E-01  0.309E-01
  7.690  0.618E-01  0.309E-01  0.309E-01
  7.700  0.618E-01  0.309E-01  0.309E-01
  7.710  0.620E-01  0.310E-01  0.310E-01
  7.720  0.623E-01  0.312E-01  0.312E-01
  7.730  0.627E-01  0.313E-01  0.313E-01
  7.740  0.629E-01  0.315E-01  0.315E-01
  7.750  0.631E-01  0.316E-01  0.316E-01
  7.760  0.632E-01  0.316E-01  0.316E-01
  7.770  0.631E-01  0.315E-01  0.315E-01
  7.780  0.627E-01  0.314E-01  0.314E-01
  7.790  0.621E-01  0.311E-01  0.311E-01
  7.800  0.612E-01  0.306E-01  0.306E-01
  7.810  0.601E-01  0.300E-01  0.300E-01
  7.820  0.586E-01  0.293E-01  0.293E-01
  7.830  0.569E-01  0.285E-01  0.285E-01
  7.840  0.550E-01  0.275E-01  0.275E-01
  7.850  0.529E-01  0.265E-01  0.265E-01
  7.860  0.507E-01  0.254E-01  0.254E-01
  7.870  0.484E-01  0.242E-01  0.242E-01
  7.880  0.461E-01  0.231E-01  0.231E-01
  7.890  0.439E-01  0.220E-01  0.220E-01
  7.900  0.419E-01  0.209E-01  0.209E-01
  7.910  0.400E-01  0.200E-01  0.200E-01
  7.920  0.385E-01  0.192E-01  0.192E-01
  7.930  0.373E-01  0.186E-01  0.186E-01
  7.940  0.365E-01  0.182E-01  0.182E-01
  7.950  0.361E-01  0.180E-01  0.180E-01
  7.960  0.362E-01  0.181E-01  0.181E-01
  7.970  0.368E-01  0.184E-01  0.184E-01
  7.980  0.380E-01  0.190E-01  0.190E-01
  7.990  0.396E-01  0.198E-01  0.198E-01
  8.000  0.418E-01  0.209E-01  0.209E-01
  8.010  0.444E-01  0.222E-01  0.222E-01
  8.020  0.475E-01  0.238E-01  0.238E-01
  8.030  0.510E-01  0.255E-01  0.255E-01
  8.040  0.549E-01  0.274E-01  0.274E-01
  8.050  0.590E-01  0.295E-01  0.295E-01
  8.060  0.633E-01  0.316E-01  0.316E-01
  8.070  0.676E-01  0.338E-01  0.338E-01
  8.080  0.720E-01  0.360E-01  0.360E-01
  8.090  0.762E-01  0.381E-01  0.381E-01
  8.100  0.802E-01  0.401E-01  0.401E-01
  8.110  0.839E-01  0.420E-01  0.420E-01
  8.120  0.873E-01  0.436E-01  0.436E-01
  8.130  0.901E-01  0.451E-01  0.451E-01
  8.140  0.924E-01  0.462E-01  0.462E-01
  8.150  0.942E-01  0.471E-01  0.471E-01
  8.160  0.954E-01  0.477E-01  0.477E-01
  8.170  0.959E-01  0.480E-01  0.480E-01
  8.180  0.959E-01  0.480E-01  0.480E-01
  8.190  0.954E-01  0.477E-01  0.477E-01
  8.200  0.943E-01  0.472E-01  0.472E-01
  8.210  0.928E-01  0.464E-01  0.464E-01
  8.220  0.910E-01  0.455E-01  0.455E-01
  8.230  0.888E-01  0.444E-01  0.444E-01
  8.240  0.865E-01  0.432E-01  0.432E-01
  8.250  0.840E-01  0.420E-01  0.420E-01
  8.260  0.814E-01  0.407E-01  0.407E-01
  8.270  0.788E-01  0.394E-01  0.394E-01
  8.280  0.763E-01  0.381E-01  0.381E-01
  8.290  0.738E-01  0.369E-01  0.369E-01
  8.300  0.715E-01  0.357E-01  0.357E-01
  8.310  0.693E-01  0.346E-01  0.346E-01
  8.320  0.673E-01  0.336E-01  0.336E-01
  8.330  0.654E-01  0.327E-01  0.327E-01
  8.340  0.638E-01  0.319E-01  0.319E-01
  8.350  0.623E-01  0.311E-01  0.311E-01
  8.360  0.609E-01  0.305E-01  0.305E-01
  8.370  0.598E-01  0.299E-01  0.299E-01
  8.380  0.588E-01  0.294E-01  0.294E-01
  8.390  0.579E-01  0.290E-01  0.290E-01
  8.400  0.572E-01  0.286E-01  0.286E-01
  8.410  0.566E-01  0.283E-01  0.283E-01
  8.420  0.561E-01  0.281E-01  0.281E-01
  8.430  0.558E-01  0.279E-01  0.279E-01
  8.440  0.555E-01  0.278E-01  0.278E-01
  8.450  0.553E-01  0.277E-01  0.277E-01
  8.460  0.553E-01  0.276E-01  0.276E-01
  8.470  0.553E-01  0.276E-01  0.276E-01
  8.480  0.554E-01  0.277E-01  0.277E-01
  8.490  0.556E-01  0.278E-01  0.278E-01
  8.500  0.559E-01  0.279E-01  0.279E-01
  8.510  0.563E-01  0.281E-01  0.281E-01
  8.520  0.568E-01  0.284E-01  0.284E-01
  8.530  0.573E-01  0.287E-01  0.287E-01
  8.540  0.580E-01  0.290E-01  0.290E-01
  8.550  0.588E-01  0.294E-01  0.294E-01
  8.560  0.597E-01  0.298E-01  0.298E-01
  8.570  0.606E-01  0.303E-01  0.303E-01
  8.580  0.617E-01  0.308E-01  0.308E-01
  8.590  0.628E-01  0.314E-01  0.314E-01
  8.600  0.641E-01  0.320E-01  0.320E-01
  8.610  0.654E-01  0.327E-01  0.327E-01
  8.620  0.668E-01  0.334E-01  0.334E-01
  8.630  0.682E-01  0.341E-01  0.341E-01
  8.640  0.698E-01  0.349E-01  0.349E-01
  8.650  0.714E-01  0.357E-01  0.357E-01
  8.660  0.731E-01  0.365E-01  0.365E-01
  8.670  0.749E-01  0.374E-01  0.374E-01
  8.680  0.767E-01  0.384E-01  0.384E-01
  8.690  0.787E-01  0.393E-01  0.393E-01
  8.700  0.807E-01  0.404E-01  0.404E-01
  8.710  0.828E-01  0.414E-01  0.414E-01
  8.720  0.851E-01  0.425E-01  0.425E-01
  8.730  0.873E-01  0.437E-01  0.437E-01
  8.740  0.897E-01  0.448E-01  0.448E-01
  8.750  0.921E-01  0.460E-01  0.460E-01
  8.760  0.945E-01  0.472E-01  0.472E-01
  8.770  0.968E-01  0.484E-01  0.484E-01
  8.780  0.992E-01  0.496E-01  0.496E-01
  8.790  0.101E+00  0.507E-01  0.507E-01
  8.800  0.103E+00  0.517E-01  0.517E-01
  8.810  0.105E+00  0.526E-01  0.526E-01
  8.820  0.107E+00  0.535E-01  0.535E-01
  8.830  0.108E+00  0.541E-01  0.541E-01
  8.840  0.109E+00  0.546E-01  0.546E-01
  8.850  0.110E+00  0.549E-01  0.549E-01
  8.860  0.110E+00  0.550E-01  0.550E-01
  8.870  0.110E+00  0.549E-01  0.549E-01
  8.880  0.109E+00  0.546E-01  0.546E-01
  8.890  0.108E+00  0.541E-01  0.541E-01
  8.900  0.107E+00  0.534E-01  0.534E-01
  8.910  0.105E+00  0.524E-01  0.524E-01
  8.920  0.103E+00  0.513E-01  0.513E-01
  8.930  0.999E-01  0.500E-01  0.500E-01
  8.940  0.970E-01  0.485E-01  0.485E-01
  8.950  0.937E-01  0.468E-01  0.468E-01
  8.960  0.901E-01  0.451E-01  0.451E-01
  8.970  0.863E-01  0.431E-01  0.431E-01
  8.980  0.823E-01  0.411E-01  0.411E-01
  8.990  0.781E-01  0.391E-01  0.391E-01
  9.000  0.738E-01  0.369E-01  0.369E-01
  9.010  0.694E-01  0.347E-01  0.347E-01
  9.020  0.650E-01  0.325E-01  0.325E-01
  9.030  0.605E-01  0.302E-01  0.302E-01
  9.040  0.560E-01  0.280E-01  0.280E-01
  9.050  0.515E-01  0.258E-01  0.258E-01
  9.060  0.471E-01  0.236E-01  0.236E-01
  9.070  0.428E-01  0.214E-01  0.214E-01
  9.080  0.387E-01  0.193E-01  0.193E-01
  9.090  0.346E-01  0.173E-01  0.173E-01
  9.100  0.307E-01  0.154E-01  0.154E-01
  9.110  0.270E-01  0.135E-01  0.135E-01
  9.120  0.234E-01  0.117E-01  0.117E-01
  9.130  0.200E-01  0.100E-01  0.100E-01
  9.140  0.168E-01  0.842E-02  0.842E-02
  9.150  0.139E-01  0.693E-02  0.693E-02
  9.160  0.111E-01  0.555E-02  0.555E-02
  9.170  0.855E-02  0.428E-02  0.428E-02
  9.180  0.623E-02  0.312E-02  0.312E-02
  9.190  0.414E-02  0.207E-02  0.207E-02
  9.200  0.228E-02  0.114E-02  0.114E-02
  9.210  0.656E-03  0.328E-03  0.328E-03
  9.220 -0.741E-03 -0.370E-03 -0.370E-03
  9.230 -0.191E-02 -0.955E-03 -0.955E-03
  9.240 -0.286E-02 -0.143E-02 -0.143E-02
  9.250 -0.360E-02 -0.180E-02 -0.180E-02
  9.260 -0.414E-02 -0.207E-02 -0.207E-02
  9.270 -0.450E-02 -0.225E-02 -0.225E-02
  9.280 -0.470E-02 -0.235E-02 -0.235E-02
  9.290 -0.475E-02 -0.237E-02 -0.237E-02
  9.300 -0.468E-02 -0.234E-02 -0.234E-02
  9.310 -0.450E-02 -0.225E-02 -0.225E-02
  9.320 -0.424E-02 -0.212E-02 -0.212E-02
  9.330 -0.392E-02 -0.196E-02 -0.196E-02
  9.340 -0.355E-02 -0.178E-02 -0.178E-02
  9.350 -0.315E-02 -0.158E-02 -0.158E-02
  9.360 -0.272E-02 -0.136E-02 -0.136E-02
  9.370 -0.228E-02 -0.114E-02 -0.114E-02
  9.380 -0.181E-02 -0.907E-03 -0.907E-03
  9.390 -0.133E-02 -0.664E-03 -0.664E-03
  9.400 -0.807E-03 -0.404E-03 -0.404E-03
  9.410 -0.237E-03 -0.119E-03 -0.119E-03
  9.420  0.406E-03  0.203E-03  0.203E-03
  9.430  0.115E-02  0.576E-03  0.576E-03
  9.440  0.204E-02  0.102E-02  0.102E-02
  9.450  0.312E-02  0.156E-02  0.156E-02
  9.460  0.444E-02  0.222E-02  0.222E-02
  9.470  0.607E-02  0.304E-02  0.304E-02
  9.480  0.809E-02  0.404E-02  0.404E-02
  9.490  0.106E-01  0.528E-02  0.528E-02
  9.500  0.136E-01  0.680E-02  0.680E-02
  9.510  0.173E-01  0.865E-02  0.865E-02
  9.520  0.218E-01  0.109E-01  0.109E-01
  9.530  0.271E-01  0.135E-01  0.135E-01
  9.540  0.334E-01  0.167E-01  0.167E-01
  9.550  0.409E-01  0.204E-01  0.204E-01
  9.560  0.496E-01  0.248E-01  0.248E-01
  9.570  0.597E-01  0.298E-01  0.298E-01
  9.580  0.712E-01  0.356E-01  0.356E-01
  9.590  0.844E-01  0.422E-01  0.422E-01
  9.600  0.993E-01  0.497E-01  0.497E-01
  9.610  0.116E+00  0.580E-01  0.580E-01
  9.620  0.135E+00  0.673E-01  0.673E-01
  9.630  0.155E+00  0.776E-01  0.776E-01
  9.640  0.178E+00  0.889E-01  0.889E-01
  9.650  0.202E+00  0.101E+00  0.101E+00
  9.660  0.229E+00  0.114E+00  0.114E+00
  9.670  0.257E+00  0.129E+00  0.129E+00
  9.680  0.288E+00  0.144E+00  0.144E+00
  9.690  0.320E+00  0.160E+00  0.160E+00
  9.700  0.353E+00  0.176E+00  0.176E+00
  9.710  0.387E+00  0.194E+00  0.194E+00
  9.720  0.422E+00  0.211E+00  0.211E+00
  9.730  0.458E+00  0.229E+00  0.229E+00
  9.740  0.493E+00  0.246E+00  0.246E+00
  9.750  0.527E+00  0.264E+00  0.264E+00
  9.760  0.560E+00  0.280E+00  0.280E+00
  9.770  0.592E+00  0.296E+00  0.296E+00
  9.780  0.620E+00  0.310E+00  0.310E+00
  9.790  0.646E+00  0.323E+00  0.323E+00
  9.800  0.667E+00  0.334E+00  0.334E+00
  9.810  0.685E+00  0.343E+00  0.343E+00
  9.820  0.699E+00  0.349E+00  0.349E+00
  9.830  0.708E+00  0.354E+00  0.354E+00
  9.840  0.712E+00  0.356E+00  0.356E+00
  9.850  0.712E+00  0.356E+00  0.356E+00
  9.860  0.707E+00  0.353E+00  0.353E+00
  9.870  0.698E+00  0.349E+00  0.349E+00
  9.880  0.686E+00  0.343E+00  0.343E+00
  9.890  0.671E+00  0.335E+00  0.335E+00
  9.900  0.653E+00  0.327E+00  0.327E+00
  9.910  0.634E+00  0.317E+00  0.317E+00
  9.920  0.613E+00  0.307E+00  0.307E+00
  9.930  0.592E+00  0.296E+00  0.296E+00
  9.940  0.571E+00  0.286E+00  0.286E+00
  9.950  0.551E+00  0.275E+00  0.275E+00
  9.960  0.531E+00  0.266E+00  0.266E+00
  9.970  0.513E+00  0.257E+00  0.257E+00
  9.980  0.497E+00  0.248E+00  0.248E+00
  9.990  0.482E+00  0.241E+00  0.241E+00
 10.000  0.470E+00  0.235E+00  0.235E+00
 10.010  0.459E+00  0.229E+00  0.229E+00
 10.020  0.449E+00  0.225E+00  0.225E+00
 10.030  0.442E+00  0.221E+00  0.221E+00
 10.040  0.436E+00  0.218E+00  0.218E+00
 10.050  0.431E+00  0.215E+00  0.215E+00
 10.060  0.427E+00  0.213E+00  0.213E+00
 10.070  0.424E+00  0.212E+00  0.212E+00
 10.080  0.422E+00  0.211E+00  0.211E+00
 10.090  0.421E+00  0.210E+00  0.210E+00
 10.100  0.420E+00  0.210E+00  0.210E+00
 10.110  0.419E+00  0.210E+00  0.210E+00
 10.120  0.419E+00  0.209E+00  0.209E+00
 10.130  0.419E+00  0.210E+00  0.210E+00
 10.140  0.420E+00  0.210E+00  0.210E+00
 10.150  0.421E+00  0.210E+00  0.210E+00
 10.160  0.422E+00  0.211E+00  0.211E+00
 10.170  0.424E+00  0.212E+00  0.212E+00
 10.180  0.426E+00  0.213E+00  0.213E+00
 10.190  0.428E+00  0.214E+00  0.214E+00
 10.200  0.432E+00  0.216E+00  0.216E+00
 10.210  0.436E+00  0.218E+00  0.218E+00
 10.220  0.440E+00  0.220E+00  0.220E+00
 10.230  0.446E+00  0.223E+00  0.223E+00
 10.240  0.452E+00  0.226E+00  0.226E+00
 10.250  0.458E+00  0.229E+00  0.229E+00
 10.260  0.465E+00  0.232E+00  0.232E+00
 10.270  0.472E+00  0.236E+00  0.236E+00
 10.280  0.479E+00  0.240E+00  0.240E+00
 10.290  0.487E+00  0.243E+00  0.243E+00
 10.300  0.493E+00  0.247E+00  0.247E+00
 10.310  0.499E+00  0.250E+00  0.250E+00
 10.320  0.504E+00  0.252E+00  0.252E+00
 10.330  0.507E+00  0.254E+00  0.254E+00
 10.340  0.509E+00  0.254E+00  0.254E+00
 10.350  0.508E+00  0.254E+00  0.254E+00
 10.360  0.504E+00  0.252E+00  0.252E+00
 10.370  0.498E+00  0.249E+00  0.249E+00
 10.380  0.489E+00  0.245E+00  0.245E+00
 10.390  0.477E+00  0.239E+00  0.239E+00
 10.400  0.462E+00  0.231E+00  0.231E+00
 10.410  0.444E+00  0.222E+00  0.222E+00
 10.420  0.423E+00  0.211E+00  0.211E+00
 10.430  0.400E+00  0.200E+00  0.200E+00
 10.440  0.374E+00  0.187E+00  0.187E+00
 10.450  0.348E+00  0.174E+00  0.174E+00
 10.460  0.320E+00  0.160E+00  0.160E+00
 10.470  0.292E+00  0.146E+00  0.146E+00
 10.480  0.264E+00  0.132E+00  0.132E+00
 10.490  0.237E+00  0.119E+00  0.119E+00
 10.500  0.212E+00  0.106E+00  0.106E+00
 10.510  0.188E+00  0.939E-01  0.939E-01
 10.520  0.166E+00  0.831E-01  0.831E-01
 10.530  0.147E+00  0.736E-01  0.736E-01
 10.540  0.131E+00  0.654E-01  0.654E-01
 10.550  0.117E+00  0.585E-01  0.585E-01
 10.560  0.106E+00  0.530E-01  0.530E-01
 10.570  0.974E-01  0.487E-01  0.487E-01
 10.580  0.912E-01  0.456E-01  0.456E-01
 10.590  0.872E-01  0.436E-01  0.436E-01
 10.600  0.850E-01  0.425E-01  0.425E-01
 10.610  0.843E-01  0.422E-01  0.422E-01
 10.620  0.849E-01  0.424E-01  0.424E-01
 10.630  0.863E-01  0.432E-01  0.432E-01
 10.640  0.885E-01  0.442E-01  0.442E-01
 10.650  0.910E-01  0.455E-01  0.455E-01
 10.660  0.938E-01  0.469E-01  0.469E-01
 10.670  0.966E-01  0.483E-01  0.483E-01
 10.680  0.994E-01  0.497E-01  0.497E-01
 10.690  0.102E+00  0.510E-01  0.510E-01
 10.700  0.104E+00  0.521E-01  0.521E-01
 10.710  0.106E+00  0.531E-01  0.531E-01
 10.720  0.108E+00  0.540E-01  0.540E-01
 10.730  0.110E+00  0.548E-01  0.548E-01
 10.740  0.111E+00  0.554E-01  0.554E-01
 10.750  0.112E+00  0.559E-01  0.559E-01
 10.760  0.112E+00  0.562E-01  0.562E-01
 10.770  0.113E+00  0.565E-01  0.565E-01
 10.780  0.113E+00  0.567E-01  0.567E-01
 10.790  0.114E+00  0.568E-01  0.568E-01
 10.800  0.114E+00  0.569E-01  0.569E-01
 10.810  0.114E+00  0.569E-01  0.569E-01
 10.820  0.114E+00  0.569E-01  0.569E-01
 10.830  0.114E+00  0.568E-01  0.568E-01
 10.840  0.114E+00  0.568E-01  0.568E-01
 10.850  0.113E+00  0.567E-01  0.567E-01
 10.860  0.113E+00  0.566E-01  0.566E-01
 10.870  0.113E+00  0.565E-01  0.565E-01
 10.880  0.113E+00  0.565E-01  0.565E-01
 10.890  0.113E+00  0.564E-01  0.564E-01
 10.900  0.113E+00  0.563E-01  0.563E-01
 10.910  0.112E+00  0.562E-01  0.562E-01
 10.920  0.112E+00  0.561E-01  0.561E-01
 10.930  0.112E+00  0.560E-01  0.560E-01
 10.940  0.112E+00  0.560E-01  0.560E-01
 10.950  0.112E+00  0.559E-01  0.559E-01
 10.960  0.112E+00  0.558E-01  0.558E-01
 10.970  0.111E+00  0.557E-01  0.557E-01
 10.980  0.111E+00  0.556E-01  0.556E-01
 10.990  0.111E+00  0.555E-01  0.555E-01
 11.000  0.111E+00  0.555E-01  0.555E-01
 11.010  0.111E+00  0.554E-01  0.554E-01
 11.020  0.111E+00  0.553E-01  0.553E-01
 11.030  0.110E+00  0.552E-01  0.552E-01
 11.040  0.110E+00  0.552E-01  0.552E-01
 11.050  0.110E+00  0.551E-01  0.551E-01
 11.060  0.110E+00  0.551E-01  0.551E-01
 11.070  0.110E+00  0.550E-01  0.550E-01
 11.080  0.110E+00  0.550E-01  0.550E-01
 11.090  0.110E+00  0.549E-01  0.549E-01
 11.100  0.110E+00  0.549E-01  0.549E-01
 11.110  0.110E+00  0.548E-01  0.548E-01
 11.120  0.110E+00  0.548E-01  0.548E-01
 11.130  0.109E+00  0.547E-01  0.547E-01
 11.140  0.109E+00  0.547E-01  0.547E-01
 11.150  0.109E+00  0.546E-01  0.546E-01
 11.160  0.109E+00  0.546E-01  0.546E-01
 11.170  0.109E+00  0.545E-01  0.545E-01
 11.180  0.109E+00  0.545E-01  0.545E-01
 11.190  0.109E+00  0.544E-01  0.544E-01
 11.200  0.109E+00  0.544E-01  0.544E-01
 11.210  0.109E+00  0.544E-01  0.544E-01
 11.220  0.109E+00  0.544E-01  0.544E-01
 11.230  0.109E+00  0.544E-01  0.544E-01
 11.240  0.109E+00  0.544E-01  0.544E-01
 11.250  0.109E+00  0.543E-01  0.543E-01
 11.260  0.109E+00  0.543E-01  0.543E-01
 11.270  0.109E+00  0.543E-01  0.543E-01
 11.280  0.109E+00  0.543E-01  0.543E-01
 11.290  0.108E+00  0.542E-01  0.542E-01
 11.300  0.108E+00  0.542E-01  0.542E-01
 11.310  0.108E+00  0.542E-01  0.542E-01
 11.320  0.108E+00  0.542E-01  0.542E-01
 11.330  0.108E+00  0.541E-01  0.541E-01
 11.340  0.108E+00  0.541E-01  0.541E-01
 11.350  0.108E+00  0.541E-01  0.541E-01
 11.360  0.108E+00  0.541E-01  0.541E-01
 11.370  0.108E+00  0.541E-01  0.541E-01
 11.380  0.108E+00  0.542E-01  0.542E-01
 11.390  0.108E+00  0.542E-01  0.542E-01
 11.400  0.108E+00  0.542E-01  0.542E-01
 11.410  0.108E+00  0.542E-01  0.542E-01
 11.420  0.108E+00  0.542E-01  0.542E-01
 11.430  0.108E+00  0.542E-01  0.542E-01
 11.440  0.108E+00  0.542E-01  0.542E-01
 11.450  0.108E+00  0.542E-01  0.542E-01
 11.460  0.108E+00  0.542E-01  0.542E-01
 11.470  0.108E+00  0.542E-01  0.542E-01
 11.480  0.108E+00  0.542E-01  0.542E-01
 11.490  0.108E+00  0.542E-01  0.542E-01
 11.500  0.108E+00  0.542E-01  0.542E-01
 11.510  0.109E+00  0.543E-01  0.543E-01
 11.520  0.109E+00  0.543E-01  0.543E-01
 11.530  0.109E+00  0.544E-01  0.544E-01
 11.540  0.109E+00  0.544E-01  0.544E-01
 11.550  0.109E+00  0.545E-01  0.545E-01
 11.560  0.109E+00  0.545E-01  0.545E-01
 11.570  0.109E+00  0.546E-01  0.546E-01
 11.580  0.109E+00  0.547E-01  0.547E-01
 11.590  0.110E+00  0.548E-01  0.548E-01
 11.600  0.110E+00  0.549E-01  0.549E-01
 11.610  0.110E+00  0.550E-01  0.550E-01
 11.620  0.110E+00  0.552E-01  0.552E-01
 11.630  0.111E+00  0.554E-01  0.554E-01
 11.640  0.111E+00  0.556E-01  0.556E-01
 11.650  0.112E+00  0.559E-01  0.559E-01
 11.660  0.113E+00  0.563E-01  0.563E-01
 11.670  0.114E+00  0.568E-01  0.568E-01
 11.680  0.115E+00  0.574E-01  0.574E-01
 11.690  0.116E+00  0.582E-01  0.582E-01
 11.700  0.118E+00  0.590E-01  0.590E-01
 11.710  0.120E+00  0.600E-01  0.600E-01
 11.720  0.122E+00  0.612E-01  0.612E-01
 11.730  0.125E+00  0.626E-01  0.626E-01
 11.740  0.128E+00  0.642E-01  0.642E-01
 11.750  0.132E+00  0.660E-01  0.660E-01
 11.760  0.136E+00  0.680E-01  0.680E-01
 11.770  0.140E+00  0.702E-01  0.702E-01
 11.780  0.145E+00  0.727E-01  0.727E-01
 11.790  0.151E+00  0.754E-01  0.754E-01
 11.800  0.157E+00  0.783E-01  0.783E-01
 11.810  0.163E+00  0.813E-01  0.813E-01
 11.820  0.169E+00  0.845E-01  0.845E-01
 11.830  0.176E+00  0.878E-01  0.878E-01
 11.840  0.182E+00  0.911E-01  0.911E-01
 11.850  0.189E+00  0.944E-01  0.944E-01
 11.860  0.195E+00  0.976E-01  0.976E-01
 11.870  0.201E+00  0.101E+00  0.101E+00
 11.880  0.207E+00  0.103E+00  0.103E+00
 11.890  0.212E+00  0.106E+00  0.106E+00
 11.900  0.216E+00  0.108E+00  0.108E+00
 11.910  0.219E+00  0.110E+00  0.110E+00
 11.920  0.222E+00  0.111E+00  0.111E+00
 11.930  0.224E+00  0.112E+00  0.112E+00
 11.940  0.225E+00  0.112E+00  0.112E+00
 11.950  0.225E+00  0.112E+00  0.112E+00
 11.960  0.224E+00  0.112E+00  0.112E+00
 11.970  0.223E+00  0.111E+00  0.111E+00
 11.980  0.221E+00  0.110E+00  0.110E+00
 11.990  0.219E+00  0.109E+00  0.109E+00
 12.000  0.216E+00  0.108E+00  0.108E+00
 12.010  0.214E+00  0.107E+00  0.107E+00
 12.020  0.211E+00  0.106E+00  0.106E+00
 12.030  0.209E+00  0.104E+00  0.104E+00
 12.040  0.207E+00  0.103E+00  0.103E+00
 12.050  0.205E+00  0.102E+00  0.102E+00
 12.060  0.204E+00  0.102E+00  0.102E+00
 12.070  0.203E+00  0.101E+00  0.101E+00
 12.080  0.202E+00  0.101E+00  0.101E+00
 12.090  0.202E+00  0.101E+00  0.101E+00
 12.100  0.203E+00  0.101E+00  0.101E+00
 12.110  0.204E+00  0.102E+00  0.102E+00
 12.120  0.205E+00  0.102E+00  0.102E+00
 12.130  0.206E+00  0.103E+00  0.103E+00
 12.140  0.207E+00  0.104E+00  0.104E+00
 12.150  0.209E+00  0.105E+00  0.105E+00
 12.160  0.211E+00  0.105E+00  0.105E+00
 12.170  0.212E+00  0.106E+00  0.106E+00
 12.180  0.214E+00  0.107E+00  0.107E+00
 12.190  0.215E+00  0.108E+00  0.108E+00
 12.200  0.217E+00  0.108E+00  0.108E+00
 12.210  0.218E+00  0.109E+00  0.109E+00
 12.220  0.220E+00  0.110E+00  0.110E+00
 12.230  0.221E+00  0.111E+00  0.111E+00
 12.240  0.223E+00  0.111E+00  0.111E+00
 12.250  0.225E+00  0.112E+00  0.112E+00
 12.260  0.227E+00  0.113E+00  0.113E+00
 12.270  0.229E+00  0.114E+00  0.114E+00
 12.280  0.231E+00  0.115E+00  0.115E+00
 12.290  0.233E+00  0.116E+00  0.116E+00
 12.300  0.235E+00  0.117E+00  0.117E+00
 12.310  0.236E+00  0.118E+00  0.118E+00
 12.320  0.238E+00  0.119E+00  0.119E+00
 12.330  0.239E+00  0.119E+00  0.119E+00
 12.340  0.239E+00  0.119E+00  0.119E+00
 12.350  0.238E+00  0.119E+00  0.119E+00
 12.360  0.236E+00  0.118E+00  0.118E+00
 12.370  0.233E+00  0.117E+00  0.117E+00
 12.380  0.229E+00  0.114E+00  0.114E+00
 12.390  0.223E+00  0.112E+00  0.112E+00
 12.400  0.216E+00  0.108E+00  0.108E+00
 12.410  0.208E+00  0.104E+00  0.104E+00
 12.420  0.198E+00  0.992E-01  0.992E-01
 12.430  0.188E+00  0.940E-01  0.940E-01
 12.440  0.177E+00  0.883E-01  0.883E-01
 12.450  0.165E+00  0.823E-01  0.823E-01
 12.460  0.152E+00  0.761E-01  0.761E-01
 12.470  0.140E+00  0.699E-01  0.699E-01
 12.480  0.128E+00  0.638E-01  0.638E-01
 12.490  0.116E+00  0.578E-01  0.578E-01
 12.500  0.105E+00  0.523E-01  0.523E-01
 12.510  0.942E-01  0.471E-01  0.471E-01
 12.520  0.850E-01  0.425E-01  0.425E-01
 12.530  0.770E-01  0.385E-01  0.385E-01
 12.540  0.702E-01  0.351E-01  0.351E-01
 12.550  0.646E-01  0.323E-01  0.323E-01
 12.560  0.603E-01  0.302E-01  0.302E-01
 12.570  0.572E-01  0.286E-01  0.286E-01
 12.580  0.552E-01  0.276E-01  0.276E-01
 12.590  0.541E-01  0.271E-01  0.271E-01
 12.600  0.539E-01  0.270E-01  0.270E-01
 12.610  0.544E-01  0.272E-01  0.272E-01
 12.620  0.554E-01  0.277E-01  0.277E-01
 12.630  0.569E-01  0.285E-01  0.285E-01
 12.640  0.587E-01  0.294E-01  0.294E-01
 12.650  0.607E-01  0.304E-01  0.304E-01
 12.660  0.628E-01  0.314E-01  0.314E-01
 12.670  0.650E-01  0.325E-01  0.325E-01
 12.680  0.671E-01  0.336E-01  0.336E-01
 12.690  0.692E-01  0.346E-01  0.346E-01
 12.700  0.713E-01  0.356E-01  0.356E-01
 12.710  0.732E-01  0.366E-01  0.366E-01
 12.720  0.751E-01  0.376E-01  0.376E-01
 12.730  0.769E-01  0.384E-01  0.384E-01
 12.740  0.786E-01  0.393E-01  0.393E-01
 12.750  0.802E-01  0.401E-01  0.401E-01
 12.760  0.817E-01  0.409E-01  0.409E-01
 12.770  0.832E-01  0.416E-01  0.416E-01
 12.780  0.846E-01  0.423E-01  0.423E-01
 12.790  0.859E-01  0.430E-01  0.430E-01
 12.800  0.873E-01  0.436E-01  0.436E-01
 12.810  0.886E-01  0.443E-01  0.443E-01
 12.820  0.898E-01  0.449E-01  0.449E-01
 12.830  0.911E-01  0.455E-01  0.455E-01
 12.840  0.923E-01  0.461E-01  0.461E-01
 12.850  0.935E-01  0.468E-01  0.468E-01
 12.860  0.947E-01  0.473E-01  0.473E-01
 12.870  0.959E-01  0.479E-01  0.479E-01
 12.880  0.970E-01  0.485E-01  0.485E-01
 12.890  0.981E-01  0.491E-01  0.491E-01
 12.900  0.992E-01  0.496E-01  0.496E-01
 12.910  0.100E+00  0.502E-01  0.502E-01
 12.920  0.101E+00  0.507E-01  0.507E-01
 12.930  0.102E+00  0.512E-01  0.512E-01
 12.940  0.103E+00  0.517E-01  0.517E-01
 12.950  0.104E+00  0.522E-01  0.522E-01
 12.960  0.105E+00  0.526E-01  0.526E-01
 12.970  0.106E+00  0.531E-01  0.531E-01
 12.980  0.107E+00  0.536E-01  0.536E-01
 12.990  0.108E+00  0.540E-01  0.540E-01
 13.000  0.109E+00  0.545E-01  0.545E-01
 13.010  0.110E+00  0.549E-01  0.549E-01
 13.020  0.111E+00  0.554E-01  0.554E-01
 13.030  0.112E+00  0.558E-01  0.558E-01
 13.040  0.113E+00  0.563E-01  0.563E-01
 13.050  0.113E+00  0.567E-01  0.567E-01
 13.060  0.114E+00  0.572E-01  0.572E-01
 13.070  0.115E+00  0.576E-01  0.576E-01
 13.080  0.116E+00  0.581E-01  0.581E-01
 13.090  0.117E+00  0.585E-01  0.585E-01
 13.100  0.118E+00  0.590E-01  0.590E-01
 13.110  0.119E+00  0.594E-01  0.594E-01
 13.120  0.120E+00  0.599E-01  0.599E-01
 13.130  0.121E+00  0.604E-01  0.604E-01
 13.140  0.122E+00  0.608E-01  0.608E-01
 13.150  0.123E+00  0.613E-01  0.613E-01
 13.160  0.124E+00  0.618E-01  0.618E-01
 13.170  0.125E+00  0.623E-01  0.623E-01
 13.180  0.126E+00  0.629E-01  0.629E-01
 13.190  0.127E+00  0.634E-01  0.634E-01
 13.200  0.128E+00  0.640E-01  0.640E-01
 13.210  0.129E+00  0.645E-01  0.645E-01
 13.220  0.130E+00  0.651E-01  0.651E-01
 13.230  0.131E+00  0.657E-01  0.657E-01
 13.240  0.133E+00  0.663E-01  0.663E-01
 13.250  0.134E+00  0.670E-01  0.670E-01
 13.260  0.135E+00  0.677E-01  0.677E-01
 13.270  0.137E+00  0.684E-01  0.684E-01
 13.280  0.138E+00  0.691E-01  0.691E-01
 13.290  0.140E+00  0.700E-01  0.700E-01
 13.300  0.142E+00  0.708E-01  0.708E-01
 13.310  0.144E+00  0.718E-01  0.718E-01
 13.320  0.146E+00  0.728E-01  0.728E-01
 13.330  0.148E+00  0.740E-01  0.740E-01
 13.340  0.151E+00  0.753E-01  0.753E-01
 13.350  0.153E+00  0.767E-01  0.767E-01
 13.360  0.157E+00  0.783E-01  0.783E-01
 13.370  0.160E+00  0.800E-01  0.800E-01
 13.380  0.164E+00  0.820E-01  0.820E-01
 13.390  0.168E+00  0.841E-01  0.841E-01
 13.400  0.173E+00  0.865E-01  0.865E-01
 13.410  0.178E+00  0.891E-01  0.891E-01
 13.420  0.184E+00  0.920E-01  0.920E-01
 13.430  0.190E+00  0.952E-01  0.952E-01
 13.440  0.197E+00  0.986E-01  0.986E-01
 13.450  0.204E+00  0.102E+00  0.102E+00
 13.460  0.212E+00  0.106E+00  0.106E+00
 13.470  0.220E+00  0.110E+00  0.110E+00
 13.480  0.229E+00  0.115E+00  0.115E+00
 13.490  0.238E+00  0.119E+00  0.119E+00
 13.500  0.247E+00  0.124E+00  0.124E+00
 13.510  0.256E+00  0.128E+00  0.128E+00
 13.520  0.266E+00  0.133E+00  0.133E+00
 13.530  0.275E+00  0.138E+00  0.138E+00
 13.540  0.284E+00  0.142E+00  0.142E+00
 13.550  0.293E+00  0.147E+00  0.147E+00
 13.560  0.302E+00  0.151E+00  0.151E+00
 13.570  0.310E+00  0.155E+00  0.155E+00
 13.580  0.318E+00  0.159E+00  0.159E+00
 13.590  0.325E+00  0.163E+00  0.163E+00
 13.600  0.331E+00  0.166E+00  0.166E+00
 13.610  0.337E+00  0.169E+00  0.169E+00
 13.620  0.342E+00  0.171E+00  0.171E+00
 13.630  0.345E+00  0.173E+00  0.173E+00
 13.640  0.348E+00  0.174E+00  0.174E+00
 13.650  0.349E+00  0.174E+00  0.174E+00
 13.660  0.348E+00  0.174E+00  0.174E+00
 13.670  0.346E+00  0.173E+00  0.173E+00
 13.680  0.343E+00  0.171E+00  0.171E+00
 13.690  0.337E+00  0.169E+00  0.169E+00
 13.700  0.330E+00  0.165E+00  0.165E+00
 13.710  0.321E+00  0.161E+00  0.161E+00
 13.720  0.311E+00  0.155E+00  0.155E+00
 13.730  0.298E+00  0.149E+00  0.149E+00
 13.740  0.285E+00  0.142E+00  0.142E+00
 13.750  0.270E+00  0.135E+00  0.135E+00
 13.760  0.254E+00  0.127E+00  0.127E+00
 13.770  0.237E+00  0.119E+00  0.119E+00
 13.780  0.220E+00  0.110E+00  0.110E+00
 13.790  0.204E+00  0.102E+00  0.102E+00
 13.800  0.187E+00  0.935E-01  0.935E-01
 13.810  0.171E+00  0.857E-01  0.857E-01
 13.820  0.156E+00  0.782E-01  0.782E-01
 13.830  0.143E+00  0.714E-01  0.714E-01
 13.840  0.130E+00  0.652E-01  0.652E-01
 13.850  0.120E+00  0.598E-01  0.598E-01
 13.860  0.110E+00  0.551E-01  0.551E-01
 13.870  0.102E+00  0.512E-01  0.512E-01
 13.880  0.960E-01  0.480E-01  0.480E-01
 13.890  0.911E-01  0.455E-01  0.455E-01
 13.900  0.874E-01  0.437E-01  0.437E-01
 13.910  0.849E-01  0.424E-01  0.424E-01
 13.920  0.833E-01  0.417E-01  0.417E-01
 13.930  0.826E-01  0.413E-01  0.413E-01
 13.940  0.826E-01  0.413E-01  0.413E-01
 13.950  0.830E-01  0.415E-01  0.415E-01
 13.960  0.839E-01  0.419E-01  0.419E-01
 13.970  0.850E-01  0.425E-01  0.425E-01
 13.980  0.864E-01  0.432E-01  0.432E-01
 13.990  0.878E-01  0.439E-01  0.439E-01
 14.000  0.894E-01  0.447E-01  0.447E-01
 14.010  0.910E-01  0.455E-01  0.455E-01
 14.020  0.927E-01  0.463E-01  0.463E-01
 14.030  0.945E-01  0.472E-01  0.472E-01
 14.040  0.963E-01  0.482E-01  0.482E-01
 14.050  0.983E-01  0.492E-01  0.492E-01
 14.060  0.101E+00  0.503E-01  0.503E-01
 14.070  0.103E+00  0.515E-01  0.515E-01
 14.080  0.106E+00  0.529E-01  0.529E-01
 14.090  0.109E+00  0.544E-01  0.544E-01
 14.100  0.112E+00  0.562E-01  0.562E-01
 14.110  0.116E+00  0.582E-01  0.582E-01
 14.120  0.121E+00  0.605E-01  0.605E-01
 14.130  0.126E+00  0.630E-01  0.630E-01
 14.140  0.132E+00  0.658E-01  0.658E-01
 14.150  0.138E+00  0.688E-01  0.688E-01
 14.160  0.144E+00  0.721E-01  0.721E-01
 14.170  0.151E+00  0.755E-01  0.755E-01
 14.180  0.158E+00  0.791E-01  0.791E-01
 14.190  0.166E+00  0.829E-01  0.829E-01
 14.200  0.173E+00  0.866E-01  0.866E-01
 14.210  0.181E+00  0.904E-01  0.904E-01
 14.220  0.188E+00  0.941E-01  0.941E-01
 14.230  0.195E+00  0.975E-01  0.975E-01
 14.240  0.202E+00  0.101E+00  0.101E+00
 14.250  0.207E+00  0.104E+00  0.104E+00
 14.260  0.212E+00  0.106E+00  0.106E+00
 14.270  0.216E+00  0.108E+00  0.108E+00
 14.280  0.220E+00  0.110E+00  0.110E+00
 14.290  0.222E+00  0.111E+00  0.111E+00
 14.300  0.223E+00  0.111E+00  0.111E+00
 14.310  0.222E+00  0.111E+00  0.111E+00
 14.320  0.221E+00  0.111E+00  0.111E+00
 14.330  0.219E+00  0.110E+00  0.110E+00
 14.340  0.216E+00  0.108E+00  0.108E+00
 14.350  0.212E+00  0.106E+00  0.106E+00
 14.360  0.208E+00  0.104E+00  0.104E+00
 14.370  0.203E+00  0.102E+00  0.102E+00
 14.380  0.198E+00  0.989E-01  0.989E-01
 14.390  0.193E+00  0.963E-01  0.963E-01
 14.400  0.187E+00  0.936E-01  0.936E-01
 14.410  0.182E+00  0.910E-01  0.910E-01
 14.420  0.177E+00  0.885E-01  0.885E-01
 14.430  0.172E+00  0.862E-01  0.862E-01
 14.440  0.168E+00  0.842E-01  0.842E-01
 14.450  0.165E+00  0.824E-01  0.824E-01
 14.460  0.162E+00  0.809E-01  0.809E-01
 14.470  0.159E+00  0.796E-01  0.796E-01
 14.480  0.157E+00  0.787E-01  0.787E-01
 14.490  0.156E+00  0.781E-01  0.781E-01
 14.500  0.155E+00  0.777E-01  0.777E-01
 14.510  0.155E+00  0.776E-01  0.776E-01
 14.520  0.155E+00  0.777E-01  0.777E-01
 14.530  0.156E+00  0.780E-01  0.780E-01
 14.540  0.157E+00  0.785E-01  0.785E-01
 14.550  0.158E+00  0.791E-01  0.791E-01
 14.560  0.160E+00  0.798E-01  0.798E-01
 14.570  0.161E+00  0.806E-01  0.806E-01
 14.580  0.163E+00  0.815E-01  0.815E-01
 14.590  0.165E+00  0.824E-01  0.824E-01
 14.600  0.167E+00  0.833E-01  0.833E-01
 14.610  0.168E+00  0.842E-01  0.842E-01
 14.620  0.170E+00  0.850E-01  0.850E-01
 14.630  0.171E+00  0.857E-01  0.857E-01
 14.640  0.173E+00  0.863E-01  0.863E-01
 14.650  0.174E+00  0.868E-01  0.868E-01
 14.660  0.174E+00  0.872E-01  0.872E-01
 14.670  0.175E+00  0.873E-01  0.873E-01
 14.680  0.174E+00  0.872E-01  0.872E-01
 14.690  0.174E+00  0.869E-01  0.869E-01
 14.700  0.173E+00  0.863E-01  0.863E-01
 14.710  0.171E+00  0.855E-01  0.855E-01
 14.720  0.169E+00  0.844E-01  0.844E-01
 14.730  0.166E+00  0.830E-01  0.830E-01
 14.740  0.163E+00  0.814E-01  0.814E-01
 14.750  0.159E+00  0.794E-01  0.794E-01
 14.760  0.154E+00  0.772E-01  0.772E-01
 14.770  0.149E+00  0.747E-01  0.747E-01
 14.780  0.144E+00  0.720E-01  0.720E-01
 14.790  0.138E+00  0.691E-01  0.691E-01
 14.800  0.132E+00  0.659E-01  0.659E-01
 14.810  0.125E+00  0.626E-01  0.626E-01
 14.820  0.118E+00  0.591E-01  0.591E-01
 14.830  0.111E+00  0.556E-01  0.556E-01
 14.840  0.104E+00  0.520E-01  0.520E-01
 14.850  0.967E-01  0.484E-01  0.484E-01
 14.860  0.895E-01  0.448E-01  0.448E-01
 14.870  0.826E-01  0.413E-01  0.413E-01
 14.880  0.758E-01  0.379E-01  0.379E-01
 14.890  0.695E-01  0.347E-01  0.347E-01
 14.900  0.636E-01  0.318E-01  0.318E-01
 14.910  0.582E-01  0.291E-01  0.291E-01
 14.920  0.534E-01  0.267E-01  0.267E-01
 14.930  0.492E-01  0.246E-01  0.246E-01
 14.940  0.456E-01  0.228E-01  0.228E-01
 14.950  0.427E-01  0.214E-01  0.214E-01
 14.960  0.405E-01  0.202E-01  0.202E-01
 14.970  0.388E-01  0.194E-01  0.194E-01
 14.980  0.377E-01  0.189E-01  0.189E-01
 14.990  0.371E-01  0.186E-01  0.186E-01
 15.000  0.370E-01  0.185E-01  0.185E-01
 15.010  0.372E-01  0.186E-01  0.186E-01
