# E(eV)   ldos(E)   pdos(E)_1   pdos(E)_2   pdos(E)_3   pdos(E)_4   
 -5.000  0.000E+00  0.000E+00  0.000E+00  0.000E+00  0.000E+00
 -4.990  0.000E+00  0.000E+00  0.000E+00  0.000E+00  0.000E+00
 -4.980  0.000E+00  0.000E+00  0.000E+00  0.000E+00  0.000E+00
 -4.970  0.000E+00  0.000E+00  0.000E+00  0.000E+00  0.000E+00
 -4.960  0.000E+00  0.000E+00  0.000E+00  0.000E+00  0.000E+00
 -4.950  0.000E+00  0.000E+00  0.000E+00  0.000E+00  0.000E+00
 -4.940  0.000E+00  0.000E+00  0.000E+00  0.000E+00  0.000E+00
 -4.930  0.000E+00  0.000E+00  0.000E+00  0.000E+00  0.000E+00
 -4.920  0.000E+00  0.000E+00  0.000E+00  0.000E+00  0.000E+00
 -4.910  0.000E+00  0.000E+00  0.000E+00  0.000E+00  0.000E+00
 -4.900  0.000E+00  0.000E+00  0.000E+00  0.000E+00  0.000E+00
 -4.890  0.000E+00  0.000E+00  0.000E+00  0.000E+00  0.000E+00
 -4.880  0.000E+00  0.000E+00  0.000E+00  0.000E+00  0.000E+00
 -4.870  0.000E+00  0.000E+00  0.000E+00  0.000E+00  0.000E+00
 -4.860  0.000E+00  0.000E+00  0.000E+00  0.000E+00  0.000E+00
 -4.850  0.000E+00  0.000E+00  0.000E+00  0.000E+00  0.000E+00
 -4.840  0.000E+00  0.000E+00  0.000E+00  0.000E+00  0.000E+00
 -4.830  0.000E+00  0.000E+00  0.000E+00  0.000E+00  0.000E+00
 -4.820  0.000E+00  0.000E+00  0.000E+00  0.000E+00  0.000E+00
 -4.810  0.000E+00  0.000E+00  0.000E+00  0.000E+00  0.000E+00
 -4.800  0.000E+00  0.000E+00  0.000E+00  0.000E+00  0.000E+00
 -4.790  0.000E+00  0.000E+00  0.000E+00  0.000E+00  0.000E+00
 -4.780  0.000E+00  0.000E+00  0.000E+00  0.000E+00  0.000E+00
 -4.770  0.000E+00  0.000E+00  0.000E+00  0.000E+00  0.000E+00
 -4.760  0.000E+00  0.000E+00  0.000E+00  0.000E+00  0.000E+00
 -4.750  0.000E+00  0.000E+00  0.000E+00  0.000E+00  0.000E+00
 -4.740  0.000E+00  0.000E+00  0.000E+00  0.000E+00  0.000E+00
 -4.730  0.000E+00  0.000E+00  0.000E+00  0.000E+00  0.000E+00
 -4.720  0.000E+00  0.000E+00  0.000E+00  0.000E+00  0.000E+00
 -4.710  0.000E+00  0.000E+00  0.000E+00  0.000E+00  0.000E+00
 -4.700  0.000E+00  0.000E+00  0.000E+00  0.000E+00  0.000E+00
 -4.690  0.000E+00  0.000E+00  0.000E+00  0.000E+00  0.000E+00
 -4.680  0.000E+00  0.000E+00  0.000E+00  0.000E+00  0.000E+00
 -4.670  0.000E+00  0.000E+00  0.000E+00  0.000E+00  0.000E+00
 -4.660  0.000E+00  0.000E+00  0.000E+00  0.000E+00  0.000E+00
 -4.650  0.000E+00  0.000E+00  0.000E+00  0.000E+00  0.000E+00
 -4.640  0.000E+00  0.000E+00  0.000E+00  0.000E+00  0.000E+00
 -4.630  0.000E+00  0.000E+00  0.000E+00  0.000E+00  0.000E+00
 -4.620  0.000E+00  0.000E+00  0.000E+00  0.000E+00  0.000E+00
 -4.610  0.000E+00  0.000E+00  0.000E+00  0.000E+00  0.000E+00
 -4.600  0.000E+00  0.000E+00  0.000E+00  0.000E+00  0.000E+00
 -4.590  0.000E+00  0.000E+00  0.000E+00  0.000E+00  0.000E+00
 -4.580  0.000E+00  0.000E+00  0.000E+00  0.000E+00  0.000E+00
 -4.570  0.000E+00  0.000E+00  0.000E+00  0.000E+00  0.000E+00
 -4.560  0.000E+00  0.000E+00  0.000E+00  0.000E+00  0.000E+00
 -4.550  0.000E+00  0.000E+00  0.000E+00  0.000E+00  0.000E+00
 -4.540  0.000E+00  0.000E+00  0.000E+00  0.000E+00  0.000E+00
 -4.530  0.000E+00  0.000E+00  0.000E+00  0.000E+00  0.000E+00
 -4.520  0.000E+00  0.000E+00  0.000E+00  0.000E+00  0.000E+00
 -4.510  0.000E+00  0.000E+00  0.000E+00  0.000E+00  0.000E+00
 -4.500  0.000E+00  0.000E+00  0.000E+00  0.000E+00  0.000E+00
 -4.490  0.000E+00  0.000E+00  0.000E+00  0.000E+00  0.000E+00
 -4.480  0.000E+00  0.000E+00  0.000E+00  0.000E+00  0.000E+00
 -4.470  0.000E+00  0.000E+00  0.000E+00  0.000E+00  0.000E+00
 -4.460  0.000E+00  0.000E+00  0.000E+00  0.000E+00  0.000E+00
 -4.450  0.000E+00  0.000E+00  0.000E+00  0.000E+00  0.000E+00
 -4.440  0.000E+00  0.000E+00  0.000E+00  0.000E+00  0.000E+00
 -4.430  0.000E+00  0.000E+00  0.000E+00  0.000E+00  0.000E+00
 -4.420  0.000E+00  0.000E+00  0.000E+00  0.000E+00  0.000E+00
 -4.410  0.000E+00  0.000E+00  0.000E+00  0.000E+00  0.000E+00
 -4.400  0.000E+00  0.000E+00  0.000E+00  0.000E+00  0.000E+00
 -4.390  0.000E+00  0.000E+00  0.000E+00  0.000E+00  0.000E+00
 -4.380  0.000E+00  0.000E+00  0.000E+00  0.000E+00  0.000E+00
 -4.370  0.000E+00  0.000E+00  0.000E+00  0.000E+00  0.000E+00
 -4.360  0.000E+00  0.000E+00  0.000E+00  0.000E+00  0.000E+00
 -4.350  0.000E+00  0.000E+00  0.000E+00  0.000E+00  0.000E+00
 -4.340  0.000E+00  0.000E+00  0.000E+00  0.000E+00  0.000E+00
 -4.330  0.000E+00  0.000E+00  0.000E+00  0.000E+00  0.000E+00
 -4.320  0.000E+00  0.000E+00  0.000E+00  0.000E+00  0.000E+00
 -4.310  0.000E+00  0.000E+00  0.000E+00  0.000E+00  0.000E+00
 -4.300  0.000E+00  0.000E+00  0.000E+00  0.000E+00  0.000E+00
 -4.290  0.000E+00  0.000E+00  0.000E+00  0.000E+00  0.000E+00
 -4.280  0.000E+00  0.000E+00  0.000E+00  0.000E+00  0.000E+00
 -4.270  0.000E+00  0.000E+00  0.000E+00  0.000E+00  0.000E+00
 -4.260  0.000E+00  0.000E+00  0.000E+00  0.000E+00  0.000E+00
 -4.250  0.000E+00  0.000E+00  0.000E+00  0.000E+00  0.000E+00
 -4.240  0.000E+00  0.000E+00  0.000E+00  0.000E+00  0.000E+00
 -4.230  0.000E+00  0.000E+00  0.000E+00  0.000E+00  0.000E+00
 -4.220  0.000E+00  0.000E+00  0.000E+00  0.000E+00  0.000E+00
 -4.210  0.000E+00  0.000E+00  0.000E+00  0.000E+00  0.000E+00
 -4.200  0.000E+00  0.000E+00  0.000E+00  0.000E+00  0.000E+00
 -4.190  0.000E+00  0.000E+00  0.000E+00  0.000E+00  0.000E+00
 -4.180  0.000E+00  0.000E+00  0.000E+00  0.000E+00  0.000E+00
 -4.170  0.000E+00  0.000E+00  0.000E+00  0.000E+00  0.000E+00
 -4.160  0.000E+00  0.000E+00  0.000E+00  0.000E+00  0.000E+00
 -4.150  0.000E+00  0.000E+00  0.000E+00  0.000E+00  0.000E+00
 -4.140  0.000E+00  0.000E+00  0.000E+00  0.000E+00  0.000E+00
 -4.130  0.000E+00  0.000E+00  0.000E+00  0.000E+00  0.000E+00
 -4.120  0.000E+00  0.000E+00  0.000E+00  0.000E+00  0.000E+00
 -4.110  0.000E+00  0.000E+00  0.000E+00  0.000E+00  0.000E+00
 -4.100  0.000E+00  0.000E+00  0.000E+00  0.000E+00  0.000E+00
 -4.090  0.000E+00  0.000E+00  0.000E+00  0.000E+00  0.000E+00
 -4.080  0.000E+00  0.000E+00  0.000E+00  0.000E+00  0.000E+00
 -4.070  0.000E+00  0.000E+00  0.000E+00  0.000E+00  0.000E+00
 -4.060  0.000E+00  0.000E+00  0.000E+00  0.000E+00  0.000E+00
 -4.050  0.000E+00  0.000E+00  0.000E+00  0.000E+00  0.000E+00
 -4.040  0.000E+00  0.000E+00  0.000E+00  0.000E+00  0.000E+00
 -4.030  0.000E+00  0.000E+00  0.000E+00  0.000E+00  0.000E+00
 -4.020  0.000E+00  0.000E+00  0.000E+00  0.000E+00  0.000E+00
 -4.010  0.000E+00  0.000E+00  0.000E+00  0.000E+00  0.000E+00
 -4.000  0.000E+00  0.000E+00  0.000E+00  0.000E+00  0.000E+00
 -3.990  0.000E+00  0.000E+00  0.000E+00  0.000E+00  0.000E+00
 -3.980  0.000E+00  0.000E+00  0.000E+00  0.000E+00  0.000E+00
 -3.970  0.000E+00  0.000E+00  0.000E+00  0.000E+00  0.000E+00
 -3.960  0.000E+00  0.000E+00  0.000E+00  0.000E+00  0.000E+00
 -3.950  0.000E+00  0.000E+00  0.000E+00  0.000E+00  0.000E+00
 -3.940  0.000E+00  0.000E+00  0.000E+00  0.000E+00  0.000E+00
 -3.930  0.000E+00  0.000E+00  0.000E+00  0.000E+00  0.000E+00
 -3.920  0.000E+00  0.000E+00  0.000E+00  0.000E+00  0.000E+00
 -3.910  0.292E-20  0.787E-21  0.675E-21  0.675E-21  0.787E-21
 -3.900  0.671E-20  0.181E-20  0.155E-20  0.155E-20  0.181E-20
 -3.890  0.152E-19  0.410E-20  0.351E-20  0.351E-20  0.410E-20
 -3.880  0.369E-19  0.995E-20  0.853E-20  0.853E-20  0.995E-20
 -3.870  0.823E-19  0.222E-19  0.190E-19  0.190E-19  0.222E-19
 -3.860  0.181E-18  0.488E-19  0.418E-19  0.418E-19  0.488E-19
 -3.850  0.397E-18  0.107E-18  0.917E-19  0.917E-19  0.107E-18
 -3.840  0.857E-18  0.231E-18  0.198E-18  0.198E-18  0.231E-18
 -3.830  0.183E-17  0.493E-18  0.421E-18  0.421E-18  0.493E-18
 -3.820  0.386E-17  0.104E-17  0.890E-18  0.890E-18  0.104E-17
 -3.810  0.806E-17  0.217E-17  0.186E-17  0.186E-17  0.217E-17
 -3.800  0.166E-16  0.449E-17  0.383E-17  0.383E-17  0.449E-17
 -3.790  0.340E-16  0.916E-17  0.783E-17  0.783E-17  0.916E-17
 -3.780  0.687E-16  0.185E-16  0.158E-16  0.158E-16  0.185E-16
 -3.770  0.137E-15  0.370E-16  0.316E-16  0.316E-16  0.370E-16
 -3.760  0.272E-15  0.733E-16  0.626E-16  0.626E-16  0.733E-16
 -3.750  0.531E-15  0.143E-15  0.122E-15  0.122E-15  0.143E-15
 -3.740  0.103E-14  0.277E-15  0.237E-15  0.237E-15  0.277E-15
 -3.730  0.197E-14  0.531E-15  0.453E-15  0.453E-15  0.531E-15
 -3.720  0.373E-14  0.101E-14  0.859E-15  0.859E-15  0.101E-14
 -3.710  0.699E-14  0.189E-14  0.161E-14  0.161E-14  0.189E-14
 -3.700  0.130E-13  0.350E-14  0.298E-14  0.298E-14  0.350E-14
 -3.690  0.238E-13  0.641E-14  0.547E-14  0.547E-14  0.641E-14
 -3.680  0.431E-13  0.116E-13  0.991E-14  0.991E-14  0.116E-13
 -3.670  0.773E-13  0.209E-13  0.178E-13  0.178E-13  0.209E-13
 -3.660  0.137E-12  0.371E-13  0.316E-13  0.316E-13  0.371E-13
 -3.650  0.241E-12  0.651E-13  0.554E-13  0.554E-13  0.651E-13
 -3.640  0.419E-12  0.113E-12  0.963E-13  0.963E-13  0.113E-12
 -3.630  0.720E-12  0.194E-12  0.166E-12  0.166E-12  0.194E-12
 -3.620  0.122E-11  0.331E-12  0.281E-12  0.281E-12  0.331E-12
 -3.610  0.206E-11  0.556E-12  0.473E-12  0.473E-12  0.556E-12
 -3.600  0.343E-11  0.926E-12  0.788E-12  0.788E-12  0.926E-12
 -3.590  0.564E-11  0.152E-11  0.130E-11  0.130E-11  0.152E-11
 -3.580  0.919E-11  0.248E-11  0.211E-11  0.211E-11  0.248E-11
 -3.570  0.148E-10  0.400E-11  0.340E-11  0.340E-11  0.400E-11
 -3.560  0.236E-10  0.638E-11  0.543E-11  0.543E-11  0.638E-11
 -3.550  0.373E-10  0.101E-10  0.856E-11  0.856E-11  0.101E-10
 -3.540  0.581E-10  0.157E-10  0.134E-10  0.134E-10  0.157E-10
 -3.530  0.898E-10  0.243E-10  0.206E-10  0.206E-10  0.243E-10
 -3.520  0.137E-09  0.371E-10  0.315E-10  0.315E-10  0.371E-10
 -3.510  0.207E-09  0.560E-10  0.476E-10  0.476E-10  0.560E-10
 -3.500  0.310E-09  0.838E-10  0.712E-10  0.712E-10  0.838E-10
 -3.490  0.459E-09  0.124E-09  0.105E-09  0.105E-09  0.124E-09
 -3.480  0.671E-09  0.182E-09  0.154E-09  0.154E-09  0.182E-09
 -3.470  0.972E-09  0.263E-09  0.223E-09  0.223E-09  0.263E-09
 -3.460  0.139E-08  0.377E-09  0.320E-09  0.320E-09  0.377E-09
 -3.450  0.198E-08  0.535E-09  0.454E-09  0.454E-09  0.535E-09
 -3.440  0.277E-08  0.750E-09  0.637E-09  0.637E-09  0.750E-09
 -3.430  0.385E-08  0.104E-08  0.884E-09  0.884E-09  0.104E-08
 -3.420  0.529E-08  0.143E-08  0.122E-08  0.122E-08  0.143E-08
 -3.410  0.720E-08  0.195E-08  0.165E-08  0.165E-08  0.195E-08
 -3.400  0.969E-08  0.262E-08  0.222E-08  0.222E-08  0.262E-08
 -3.390  0.129E-07  0.349E-08  0.296E-08  0.296E-08  0.349E-08
 -3.380  0.170E-07  0.460E-08  0.391E-08  0.391E-08  0.460E-08
 -3.370  0.222E-07  0.600E-08  0.510E-08  0.510E-08  0.600E-08
 -3.360  0.287E-07  0.775E-08  0.658E-08  0.658E-08  0.775E-08
 -3.350  0.366E-07  0.991E-08  0.841E-08  0.841E-08  0.991E-08
 -3.340  0.464E-07  0.125E-07  0.106E-07  0.106E-07  0.125E-07
 -3.330  0.581E-07  0.157E-07  0.133E-07  0.133E-07  0.157E-07
 -3.320  0.720E-07  0.195E-07  0.165E-07  0.165E-07  0.195E-07
 -3.310  0.885E-07  0.239E-07  0.203E-07  0.203E-07  0.239E-07
 -3.300  0.108E-06  0.291E-07  0.247E-07  0.247E-07  0.291E-07
 -3.290  0.129E-06  0.350E-07  0.298E-07  0.298E-07  0.350E-07
 -3.280  0.154E-06  0.417E-07  0.355E-07  0.355E-07  0.417E-07
 -3.270  0.182E-06  0.493E-07  0.419E-07  0.419E-07  0.493E-07
 -3.260  0.213E-06  0.576E-07  0.491E-07  0.491E-07  0.576E-07
 -3.250  0.247E-06  0.668E-07  0.569E-07  0.569E-07  0.668E-07
 -3.240  0.284E-06  0.767E-07  0.654E-07  0.654E-07  0.767E-07
 -3.230  0.323E-06  0.873E-07  0.744E-07  0.744E-07  0.873E-07
 -3.220  0.365E-06  0.984E-07  0.840E-07  0.840E-07  0.984E-07
 -3.210  0.408E-06  0.110E-06  0.941E-07  0.941E-07  0.110E-06
 -3.200  0.453E-06  0.122E-06  0.104E-06  0.104E-06  0.122E-06
 -3.190  0.498E-06  0.134E-06  0.115E-06  0.115E-06  0.134E-06
 -3.180  0.544E-06  0.147E-06  0.126E-06  0.126E-06  0.147E-06
 -3.170  0.589E-06  0.159E-06  0.136E-06  0.136E-06  0.159E-06
 -3.160  0.634E-06  0.171E-06  0.146E-06  0.146E-06  0.171E-06
 -3.150  0.677E-06  0.182E-06  0.157E-06  0.157E-06  0.182E-06
 -3.140  0.719E-06  0.193E-06  0.166E-06  0.166E-06  0.193E-06
 -3.130  0.758E-06  0.203E-06  0.176E-06  0.176E-06  0.203E-06
 -3.120  0.795E-06  0.213E-06  0.184E-06  0.184E-06  0.213E-06
 -3.110  0.829E-06  0.222E-06  0.192E-06  0.192E-06  0.222E-06
 -3.100  0.861E-06  0.230E-06  0.200E-06  0.200E-06  0.230E-06
 -3.090  0.889E-06  0.238E-06  0.207E-06  0.207E-06  0.238E-06
 -3.080  0.915E-06  0.245E-06  0.213E-06  0.213E-06  0.245E-06
 -3.070  0.939E-06  0.251E-06  0.219E-06  0.219E-06  0.251E-06
 -3.060  0.961E-06  0.256E-06  0.224E-06  0.224E-06  0.256E-06
 -3.050  0.980E-06  0.261E-06  0.229E-06  0.229E-06  0.261E-06
 -3.040  0.998E-06  0.266E-06  0.233E-06  0.233E-06  0.266E-06
 -3.030  0.101E-05  0.270E-06  0.237E-06  0.237E-06  0.270E-06
 -3.020  0.103E-05  0.274E-06  0.241E-06  0.241E-06  0.274E-06
 -3.010  0.105E-05  0.278E-06  0.245E-06  0.245E-06  0.278E-06
 -3.000  0.106E-05  0.282E-06  0.249E-06  0.249E-06  0.282E-06
 -2.990  0.107E-05  0.285E-06  0.252E-06  0.252E-06  0.285E-06
 -2.980  0.109E-05  0.289E-06  0.256E-06  0.256E-06  0.289E-06
 -2.970  0.110E-05  0.293E-06  0.260E-06  0.260E-06  0.293E-06
 -2.960  0.112E-05  0.296E-06  0.264E-06  0.264E-06  0.296E-06
 -2.950  0.114E-05  0.301E-06  0.268E-06  0.268E-06  0.301E-06
 -2.940  0.115E-05  0.305E-06  0.272E-06  0.272E-06  0.305E-06
 -2.930  0.117E-05  0.309E-06  0.276E-06  0.276E-06  0.309E-06
 -2.920  0.119E-05  0.314E-06  0.280E-06  0.280E-06  0.314E-06
 -2.910  0.121E-05  0.318E-06  0.285E-06  0.285E-06  0.318E-06
 -2.900  0.122E-05  0.323E-06  0.289E-06  0.289E-06  0.323E-06
 -2.890  0.124E-05  0.328E-06  0.294E-06  0.294E-06  0.328E-06
 -2.880  0.126E-05  0.333E-06  0.299E-06  0.299E-06  0.333E-06
 -2.870  0.129E-05  0.339E-06  0.304E-06  0.304E-06  0.339E-06
 -2.860  0.131E-05  0.344E-06  0.309E-06  0.309E-06  0.344E-06
 -2.850  0.133E-05  0.350E-06  0.315E-06  0.315E-06  0.350E-06
 -2.840  0.135E-05  0.356E-06  0.320E-06  0.320E-06  0.356E-06
 -2.830  0.138E-05  0.363E-06  0.326E-06  0.326E-06  0.363E-06
 -2.820  0.140E-05  0.370E-06  0.332E-06  0.332E-06  0.370E-06
 -2.810  0.143E-05  0.378E-06  0.338E-06  0.338E-06  0.378E-06
 -2.800  0.146E-05  0.386E-06  0.345E-06  0.345E-06  0.386E-06
 -2.790  0.150E-05  0.396E-06  0.352E-06  0.352E-06  0.396E-06
 -2.780  0.154E-05  0.408E-06  0.360E-06  0.360E-06  0.408E-06
 -2.770  0.158E-05  0.422E-06  0.368E-06  0.368E-06  0.422E-06
 -2.760  0.164E-05  0.440E-06  0.378E-06  0.378E-06  0.440E-06
 -2.750  0.170E-05  0.462E-06  0.390E-06  0.390E-06  0.462E-06
 -2.740  0.179E-05  0.490E-06  0.404E-06  0.404E-06  0.490E-06
 -2.730  0.189E-05  0.525E-06  0.420E-06  0.420E-06  0.525E-06
 -2.720  0.202E-05  0.570E-06  0.440E-06  0.440E-06  0.570E-06
 -2.710  0.218E-05  0.626E-06  0.464E-06  0.464E-06  0.626E-06
 -2.700  0.238E-05  0.698E-06  0.493E-06  0.493E-06  0.698E-06
 -2.690  0.263E-05  0.788E-06  0.529E-06  0.529E-06  0.788E-06
 -2.680  0.295E-05  0.900E-06  0.573E-06  0.573E-06  0.900E-06
 -2.670  0.333E-05  0.104E-05  0.626E-06  0.626E-06  0.104E-05
 -2.660  0.380E-05  0.121E-05  0.691E-06  0.691E-06  0.121E-05
 -2.650  0.436E-05  0.141E-05  0.768E-06  0.768E-06  0.141E-05
 -2.640  0.503E-05  0.166E-05  0.860E-06  0.860E-06  0.166E-05
 -2.630  0.582E-05  0.194E-05  0.968E-06  0.968E-06  0.194E-05
 -2.620  0.675E-05  0.228E-05  0.109E-05  0.109E-05  0.228E-05
 -2.610  0.781E-05  0.267E-05  0.124E-05  0.124E-05  0.267E-05
 -2.600  0.901E-05  0.310E-05  0.140E-05  0.140E-05  0.310E-05
 -2.590  0.104E-04  0.359E-05  0.159E-05  0.159E-05  0.359E-05
 -2.580  0.118E-04  0.413E-05  0.179E-05  0.179E-05  0.413E-05
 -2.570  0.135E-04  0.472E-05  0.201E-05  0.201E-05  0.472E-05
 -2.560  0.152E-04  0.535E-05  0.225E-05  0.225E-05  0.535E-05
 -2.550  0.170E-04  0.600E-05  0.250E-05  0.250E-05  0.600E-05
 -2.540  0.189E-04  0.668E-05  0.277E-05  0.277E-05  0.668E-05
 -2.530  0.208E-04  0.737E-05  0.304E-05  0.304E-05  0.737E-05
 -2.520  0.227E-04  0.805E-05  0.331E-05  0.331E-05  0.805E-05
 -2.510  0.246E-04  0.870E-05  0.358E-05  0.358E-05  0.870E-05
 -2.500  0.263E-04  0.932E-05  0.384E-05  0.384E-05  0.932E-05
 -2.490  0.279E-04  0.988E-05  0.409E-05  0.409E-05  0.988E-05
 -2.480  0.294E-04  0.104E-04  0.431E-05  0.431E-05  0.104E-04
 -2.470  0.306E-04  0.108E-04  0.452E-05  0.452E-05  0.108E-04
 -2.460  0.316E-04  0.111E-04  0.470E-05  0.470E-05  0.111E-04
 -2.450  0.323E-04  0.113E-04  0.484E-05  0.484E-05  0.113E-04
 -2.440  0.328E-04  0.114E-04  0.496E-05  0.496E-05  0.114E-04
 -2.430  0.329E-04  0.114E-04  0.505E-05  0.505E-05  0.114E-04
 -2.420  0.328E-04  0.113E-04  0.511E-05  0.511E-05  0.113E-04
 -2.410  0.325E-04  0.111E-04  0.514E-05  0.514E-05  0.111E-04
 -2.400  0.319E-04  0.108E-04  0.515E-05  0.515E-05  0.108E-04
 -2.390  0.311E-04  0.104E-04  0.515E-05  0.515E-05  0.104E-04
 -2.380  0.302E-04  0.998E-05  0.513E-05  0.513E-05  0.998E-05
 -2.370  0.292E-04  0.949E-05  0.512E-05  0.512E-05  0.949E-05
 -2.360  0.281E-04  0.897E-05  0.510E-05  0.510E-05  0.897E-05
 -2.350  0.271E-04  0.843E-05  0.510E-05  0.510E-05  0.843E-05
 -2.340  0.260E-04  0.789E-05  0.512E-05  0.512E-05  0.789E-05
 -2.330  0.251E-04  0.737E-05  0.517E-05  0.517E-05  0.737E-05
 -2.320  0.242E-04  0.687E-05  0.525E-05  0.525E-05  0.687E-05
 -2.310  0.235E-04  0.640E-05  0.536E-05  0.536E-05  0.640E-05
 -2.300  0.230E-04  0.597E-05  0.551E-05  0.551E-05  0.597E-05
 -2.290  0.226E-04  0.558E-05  0.570E-05  0.570E-05  0.558E-05
 -2.280  0.223E-04  0.524E-05  0.593E-05  0.593E-05  0.524E-05
 -2.270  0.223E-04  0.495E-05  0.619E-05  0.619E-05  0.495E-05
 -2.260  0.224E-04  0.470E-05  0.648E-05  0.648E-05  0.470E-05
 -2.250  0.226E-04  0.449E-05  0.679E-05  0.679E-05  0.449E-05
 -2.240  0.229E-04  0.432E-05  0.713E-05  0.713E-05  0.432E-05
 -2.230  0.233E-04  0.418E-05  0.747E-05  0.747E-05  0.418E-05
 -2.220  0.238E-04  0.408E-05  0.781E-05  0.781E-05  0.408E-05
 -2.210  0.243E-04  0.399E-05  0.814E-05  0.814E-05  0.399E-05
 -2.200  0.247E-04  0.393E-05  0.844E-05  0.844E-05  0.393E-05
 -2.190  0.252E-04  0.388E-05  0.872E-05  0.872E-05  0.388E-05
 -2.180  0.256E-04  0.384E-05  0.897E-05  0.897E-05  0.384E-05
 -2.170  0.260E-04  0.381E-05  0.917E-05  0.917E-05  0.381E-05
 -2.160  0.262E-04  0.378E-05  0.932E-05  0.932E-05  0.378E-05
 -2.150  0.264E-04  0.376E-05  0.942E-05  0.942E-05  0.376E-05
 -2.140  0.264E-04  0.374E-05  0.947E-05  0.947E-05  0.374E-05
 -2.130  0.264E-04  0.372E-05  0.947E-05  0.947E-05  0.372E-05
 -2.120  0.263E-04  0.370E-05  0.942E-05  0.942E-05  0.370E-05
 -2.110  0.260E-04  0.368E-05  0.934E-05  0.934E-05  0.368E-05
 -2.100  0.258E-04  0.367E-05  0.922E-05  0.922E-05  0.367E-05
 -2.090  0.254E-04  0.366E-05  0.907E-05  0.907E-05  0.366E-05
 -2.080  0.251E-04  0.364E-05  0.890E-05  0.890E-05  0.364E-05
 -2.070  0.247E-04  0.364E-05  0.872E-05  0.872E-05  0.364E-05
 -2.060  0.244E-04  0.363E-05  0.854E-05  0.854E-05  0.363E-05
 -2.050  0.240E-04  0.364E-05  0.837E-05  0.837E-05  0.364E-05
 -2.040  0.237E-04  0.364E-05  0.821E-05  0.821E-05  0.364E-05
 -2.030  0.234E-04  0.366E-05  0.807E-05  0.807E-05  0.366E-05
 -2.020  0.232E-04  0.367E-05  0.794E-05  0.794E-05  0.367E-05
 -2.010  0.231E-04  0.369E-05  0.784E-05  0.784E-05  0.369E-05
 -2.000  0.229E-04  0.372E-05  0.776E-05  0.776E-05  0.372E-05
 -1.990  0.229E-04  0.374E-05  0.770E-05  0.770E-05  0.374E-05
 -1.980  0.228E-04  0.376E-05  0.765E-05  0.765E-05  0.376E-05
 -1.970  0.228E-04  0.378E-05  0.762E-05  0.762E-05  0.378E-05
 -1.960  0.228E-04  0.379E-05  0.759E-05  0.759E-05  0.379E-05
 -1.950  0.227E-04  0.379E-05  0.756E-05  0.756E-05  0.379E-05
 -1.940  0.226E-04  0.378E-05  0.753E-05  0.753E-05  0.378E-05
 -1.930  0.225E-04  0.376E-05  0.748E-05  0.748E-05  0.376E-05
 -1.920  0.223E-04  0.372E-05  0.741E-05  0.741E-05  0.372E-05
 -1.910  0.220E-04  0.366E-05  0.732E-05  0.732E-05  0.366E-05
 -1.900  0.216E-04  0.358E-05  0.720E-05  0.720E-05  0.358E-05
 -1.890  0.211E-04  0.348E-05  0.705E-05  0.705E-05  0.348E-05
 -1.880  0.205E-04  0.336E-05  0.686E-05  0.686E-05  0.336E-05
 -1.870  0.197E-04  0.323E-05  0.664E-05  0.664E-05  0.323E-05
 -1.860  0.189E-04  0.307E-05  0.638E-05  0.638E-05  0.307E-05
 -1.850  0.180E-04  0.290E-05  0.609E-05  0.609E-05  0.290E-05
 -1.840  0.170E-04  0.271E-05  0.577E-05  0.577E-05  0.271E-05
 -1.830  0.159E-04  0.251E-05  0.543E-05  0.543E-05  0.251E-05
 -1.820  0.147E-04  0.231E-05  0.507E-05  0.507E-05  0.231E-05
 -1.810  0.136E-04  0.210E-05  0.469E-05  0.469E-05  0.210E-05
 -1.800  0.124E-04  0.189E-05  0.430E-05  0.430E-05  0.189E-05
 -1.790  0.112E-04  0.168E-05  0.390E-05  0.390E-05  0.168E-05
 -1.780  0.997E-05  0.148E-05  0.351E-05  0.351E-05  0.148E-05
 -1.770  0.881E-05  0.128E-05  0.312E-05  0.312E-05  0.128E-05
 -1.760  0.768E-05  0.110E-05  0.274E-05  0.274E-05  0.110E-05
 -1.750  0.661E-05  0.925E-06  0.238E-05  0.238E-05  0.925E-06
 -1.740  0.559E-05  0.765E-06  0.203E-05  0.203E-05  0.765E-06
 -1.730  0.464E-05  0.619E-06  0.170E-05  0.170E-05  0.619E-06
 -1.720  0.376E-05  0.486E-06  0.140E-05  0.140E-05  0.486E-06
 -1.710  0.296E-05  0.367E-06  0.111E-05  0.111E-05  0.367E-06
 -1.700  0.222E-05  0.261E-06  0.850E-06  0.850E-06  0.261E-06
 -1.690  0.156E-05  0.168E-06  0.613E-06  0.613E-06  0.168E-06
 -1.680  0.976E-06  0.873E-07  0.400E-06  0.400E-06  0.873E-07
 -1.670  0.463E-06  0.183E-07  0.213E-06  0.213E-06  0.183E-07
 -1.660  0.223E-07 -0.399E-07  0.510E-07  0.510E-07 -0.399E-07
 -1.650 -0.350E-06 -0.879E-07 -0.870E-07 -0.870E-07 -0.879E-07
 -1.640 -0.655E-06 -0.126E-06 -0.201E-06 -0.201E-06 -0.126E-06
 -1.630 -0.898E-06 -0.156E-06 -0.293E-06 -0.293E-06 -0.156E-06
 -1.620 -0.108E-05 -0.178E-06 -0.363E-06 -0.363E-06 -0.178E-06
 -1.610 -0.121E-05 -0.193E-06 -0.413E-06 -0.413E-06 -0.193E-06
 -1.600 -0.129E-05 -0.201E-06 -0.446E-06 -0.446E-06 -0.201E-06
 -1.590 -0.133E-05 -0.203E-06 -0.462E-06 -0.462E-06 -0.203E-06
 -1.580 -0.133E-05 -0.201E-06 -0.464E-06 -0.464E-06 -0.201E-06
 -1.570 -0.130E-05 -0.194E-06 -0.454E-06 -0.454E-06 -0.194E-06
 -1.560 -0.124E-05 -0.184E-06 -0.435E-06 -0.435E-06 -0.184E-06
 -1.550 -0.116E-05 -0.172E-06 -0.409E-06 -0.409E-06 -0.172E-06
 -1.540 -0.107E-05 -0.158E-06 -0.378E-06 -0.378E-06 -0.158E-06
 -1.530 -0.972E-06 -0.143E-06 -0.343E-06 -0.343E-06 -0.143E-06
 -1.520 -0.868E-06 -0.128E-06 -0.306E-06 -0.306E-06 -0.128E-06
 -1.510 -0.764E-06 -0.112E-06 -0.270E-06 -0.270E-06 -0.112E-06
 -1.500 -0.663E-06 -0.976E-07 -0.234E-06 -0.234E-06 -0.976E-07
 -1.490 -0.568E-06 -0.836E-07 -0.200E-06 -0.200E-06 -0.836E-07
 -1.480 -0.479E-06 -0.707E-07 -0.169E-06 -0.169E-06 -0.707E-07
 -1.470 -0.400E-06 -0.590E-07 -0.141E-06 -0.141E-06 -0.590E-07
 -1.460 -0.329E-06 -0.486E-07 -0.116E-06 -0.116E-06 -0.486E-07
 -1.450 -0.267E-06 -0.395E-07 -0.941E-07 -0.941E-07 -0.395E-07
 -1.440 -0.215E-06 -0.318E-07 -0.755E-07 -0.755E-07 -0.318E-07
 -1.430 -0.170E-06 -0.252E-07 -0.598E-07 -0.598E-07 -0.252E-07
 -1.420 -0.133E-06 -0.198E-07 -0.468E-07 -0.468E-07 -0.198E-07
 -1.410 -0.103E-06 -0.153E-07 -0.362E-07 -0.362E-07 -0.153E-07
 -1.400 -0.787E-07 -0.117E-07 -0.276E-07 -0.276E-07 -0.117E-07
 -1.390 -0.594E-07 -0.888E-08 -0.208E-07 -0.208E-07 -0.888E-08
 -1.380 -0.444E-07 -0.664E-08 -0.155E-07 -0.155E-07 -0.664E-08
 -1.370 -0.327E-07 -0.491E-08 -0.114E-07 -0.114E-07 -0.491E-08
 -1.360 -0.238E-07 -0.358E-08 -0.834E-08 -0.834E-08 -0.358E-08
 -1.350 -0.172E-07 -0.259E-08 -0.600E-08 -0.600E-08 -0.259E-08
 -1.340 -0.122E-07 -0.185E-08 -0.427E-08 -0.427E-08 -0.185E-08
 -1.330 -0.861E-08 -0.130E-08 -0.300E-08 -0.300E-08 -0.130E-08
 -1.320 -0.599E-08 -0.907E-09 -0.209E-08 -0.209E-08 -0.907E-09
 -1.310 -0.412E-08 -0.625E-09 -0.144E-08 -0.144E-08 -0.625E-09
 -1.300 -0.280E-08 -0.426E-09 -0.975E-09 -0.975E-09 -0.426E-09
 -1.290 -0.188E-08 -0.287E-09 -0.655E-09 -0.655E-09 -0.287E-09
 -1.280 -0.125E-08 -0.191E-09 -0.435E-09 -0.435E-09 -0.191E-09
 -1.270 -0.823E-09 -0.126E-09 -0.286E-09 -0.286E-09 -0.126E-09
 -1.260 -0.535E-09 -0.818E-10 -0.186E-09 -0.186E-09 -0.818E-10
 -1.250 -0.344E-09 -0.526E-10 -0.119E-09 -0.119E-09 -0.526E-10
 -1.240 -0.218E-09 -0.335E-10 -0.756E-10 -0.756E-10 -0.335E-10
 -1.230 -0.137E-09 -0.211E-10 -0.475E-10 -0.475E-10 -0.211E-10
 -1.220 -0.851E-10 -0.131E-10 -0.295E-10 -0.295E-10 -0.131E-10
 -1.210 -0.522E-10 -0.805E-11 -0.181E-10 -0.181E-10 -0.805E-11
 -1.200 -0.317E-10 -0.489E-11 -0.110E-10 -0.110E-10 -0.489E-11
 -1.190 -0.190E-10 -0.294E-11 -0.658E-11 -0.658E-11 -0.294E-11
 -1.180 -0.113E-10 -0.175E-11 -0.391E-11 -0.391E-11 -0.175E-11
 -1.170 -0.664E-11 -0.103E-11 -0.229E-11 -0.229E-11 -0.103E-11
 -1.160 -0.385E-11 -0.598E-12 -0.133E-11 -0.133E-11 -0.598E-12
 -1.150 -0.221E-11 -0.343E-12 -0.761E-12 -0.761E-12 -0.343E-12
 -1.140 -0.125E-11 -0.195E-12 -0.430E-12 -0.430E-12 -0.195E-12
 -1.130 -0.695E-12 -0.109E-12 -0.239E-12 -0.239E-12 -0.109E-12
 -1.120 -0.379E-12 -0.595E-13 -0.130E-12 -0.130E-12 -0.595E-13
 -1.110 -0.201E-12 -0.317E-13 -0.688E-13 -0.688E-13 -0.317E-13
 -1.100 -0.101E-12 -0.159E-13 -0.345E-13 -0.345E-13 -0.159E-13
 -1.090 -0.443E-13 -0.746E-14 -0.147E-13 -0.147E-13 -0.746E-14
 -1.080  0.000E+00  0.000E+00  0.000E+00  0.000E+00  0.000E+00
 -1.070  0.000E+00  0.000E+00  0.000E+00  0.000E+00  0.000E+00
 -1.060  0.000E+00  0.000E+00  0.000E+00  0.000E+00  0.000E+00
 -1.050  0.000E+00  0.000E+00  0.000E+00  0.000E+00  0.000E+00
 -1.040  0.000E+00  0.000E+00  0.000E+00  0.000E+00  0.000E+00
 -1.030  0.000E+00  0.000E+00  0.000E+00  0.000E+00  0.000E+00
 -1.020  0.000E+00  0.000E+00  0.000E+00  0.000E+00  0.000E+00
 -1.010  0.000E+00  0.000E+00  0.000E+00  0.000E+00  0.000E+00
 -1.000  0.000E+00  0.000E+00  0.000E+00  0.000E+00  0.000E+00
 -0.990  0.000E+00  0.000E+00  0.000E+00  0.000E+00  0.000E+00
 -0.980  0.000E+00  0.000E+00  0.000E+00  0.000E+00  0.000E+00
 -0.970  0.000E+00  0.000E+00  0.000E+00  0.000E+00  0.000E+00
 -0.960  0.000E+00  0.000E+00  0.000E+00  0.000E+00  0.000E+00
 -0.950  0.000E+00  0.000E+00  0.000E+00  0.000E+00  0.000E+00
 -0.940  0.000E+00  0.000E+00  0.000E+00  0.000E+00  0.000E+00
 -0.930  0.000E+00  0.000E+00  0.000E+00  0.000E+00  0.000E+00
 -0.920  0.000E+00  0.000E+00  0.000E+00  0.000E+00  0.000E+00
 -0.910  0.000E+00  0.000E+00  0.000E+00  0.000E+00  0.000E+00
 -0.900  0.000E+00  0.000E+00  0.000E+00  0.000E+00  0.000E+00
 -0.890  0.000E+00  0.000E+00  0.000E+00  0.000E+00  0.000E+00
 -0.880  0.000E+00  0.000E+00  0.000E+00  0.000E+00  0.000E+00
 -0.870  0.000E+00  0.000E+00  0.000E+00  0.000E+00  0.000E+00
 -0.860  0.000E+00  0.000E+00  0.000E+00  0.000E+00  0.000E+00
 -0.850  0.000E+00  0.000E+00  0.000E+00  0.000E+00  0.000E+00
 -0.840  0.000E+00  0.000E+00  0.000E+00  0.000E+00  0.000E+00
 -0.830  0.000E+00  0.000E+00  0.000E+00  0.000E+00  0.000E+00
 -0.820  0.000E+00  0.000E+00  0.000E+00  0.000E+00  0.000E+00
 -0.810  0.000E+00  0.000E+00  0.000E+00  0.000E+00  0.000E+00
 -0.800  0.000E+00  0.000E+00  0.000E+00  0.000E+00  0.000E+00
 -0.790  0.000E+00  0.000E+00  0.000E+00  0.000E+00  0.000E+00
 -0.780  0.000E+00  0.000E+00  0.000E+00  0.000E+00  0.000E+00
 -0.770  0.000E+00  0.000E+00  0.000E+00  0.000E+00  0.000E+00
 -0.760  0.000E+00  0.000E+00  0.000E+00  0.000E+00  0.000E+00
 -0.750  0.000E+00  0.000E+00  0.000E+00  0.000E+00  0.000E+00
 -0.740  0.000E+00  0.000E+00  0.000E+00  0.000E+00  0.000E+00
 -0.730  0.000E+00  0.000E+00  0.000E+00  0.000E+00  0.000E+00
 -0.720  0.000E+00  0.000E+00  0.000E+00  0.000E+00  0.000E+00
 -0.710  0.000E+00  0.000E+00  0.000E+00  0.000E+00  0.000E+00
 -0.700  0.000E+00  0.000E+00  0.000E+00  0.000E+00  0.000E+00
 -0.690  0.000E+00  0.000E+00  0.000E+00  0.000E+00  0.000E+00
 -0.680  0.000E+00  0.000E+00  0.000E+00  0.000E+00  0.000E+00
 -0.670  0.000E+00  0.000E+00  0.000E+00  0.000E+00  0.000E+00
 -0.660  0.000E+00  0.000E+00  0.000E+00  0.000E+00  0.000E+00
 -0.650  0.000E+00  0.000E+00  0.000E+00  0.000E+00  0.000E+00
 -0.640  0.000E+00  0.000E+00  0.000E+00  0.000E+00  0.000E+00
 -0.630  0.000E+00  0.000E+00  0.000E+00  0.000E+00  0.000E+00
 -0.620  0.000E+00  0.000E+00  0.000E+00  0.000E+00  0.000E+00
 -0.610  0.000E+00  0.000E+00  0.000E+00  0.000E+00  0.000E+00
 -0.600  0.000E+00  0.000E+00  0.000E+00  0.000E+00  0.000E+00
 -0.590  0.000E+00  0.000E+00  0.000E+00  0.000E+00  0.000E+00
 -0.580  0.000E+00  0.000E+00  0.000E+00  0.000E+00  0.000E+00
 -0.570  0.000E+00  0.000E+00  0.000E+00  0.000E+00  0.000E+00
 -0.560  0.000E+00  0.000E+00  0.000E+00  0.000E+00  0.000E+00
 -0.550  0.456E-19  0.836E-20  0.145E-19  0.145E-19  0.836E-20
 -0.540  0.138E-18  0.255E-19  0.436E-19  0.436E-19  0.255E-19
 -0.530  0.348E-18  0.646E-19  0.109E-18  0.109E-18  0.646E-19
 -0.520  0.800E-18  0.149E-18  0.251E-18  0.251E-18  0.149E-18
 -0.510  0.181E-17  0.337E-18  0.567E-18  0.567E-18  0.337E-18
 -0.500  0.402E-17  0.749E-18  0.126E-17  0.126E-17  0.749E-18
 -0.490  0.881E-17  0.164E-17  0.276E-17  0.276E-17  0.164E-17
 -0.480  0.191E-16  0.356E-17  0.598E-17  0.598E-17  0.356E-17
 -0.470  0.409E-16  0.764E-17  0.128E-16  0.128E-16  0.764E-17
 -0.460  0.867E-16  0.162E-16  0.271E-16  0.271E-16  0.162E-16
 -0.450  0.182E-15  0.340E-16  0.569E-16  0.569E-16  0.340E-16
 -0.440  0.377E-15  0.706E-16  0.118E-15  0.118E-15  0.706E-16
 -0.430  0.774E-15  0.145E-15  0.242E-15  0.242E-15  0.145E-15
 -0.420  0.157E-14  0.294E-15  0.491E-15  0.491E-15  0.294E-15
 -0.410  0.315E-14  0.591E-15  0.986E-15  0.986E-15  0.591E-15
 -0.400  0.626E-14  0.117E-14  0.196E-14  0.196E-14  0.117E-14
 -0.390  0.123E-13  0.231E-14  0.385E-14  0.385E-14  0.231E-14
 -0.380  0.239E-13  0.449E-14  0.747E-14  0.747E-14  0.449E-14
 -0.370  0.460E-13  0.863E-14  0.144E-13  0.144E-13  0.863E-14
 -0.360  0.874E-13  0.164E-13  0.273E-13  0.273E-13  0.164E-13
 -0.350  0.164E-12  0.309E-13  0.513E-13  0.513E-13  0.309E-13
 -0.340  0.306E-12  0.575E-13  0.955E-13  0.955E-13  0.575E-13
 -0.330  0.563E-12  0.106E-12  0.176E-12  0.176E-12  0.106E-12
 -0.320  0.103E-11  0.193E-12  0.320E-12  0.320E-12  0.193E-12
 -0.310  0.185E-11  0.348E-12  0.576E-12  0.576E-12  0.348E-12
 -0.300  0.329E-11  0.621E-12  0.103E-11  0.103E-11  0.621E-12
 -0.290  0.580E-11  0.109E-11  0.181E-11  0.181E-11  0.109E-11
 -0.280  0.101E-10  0.191E-11  0.315E-11  0.315E-11  0.191E-11
 -0.270  0.175E-10  0.330E-11  0.543E-11  0.543E-11  0.330E-11
 -0.260  0.298E-10  0.563E-11  0.926E-11  0.926E-11  0.563E-11
 -0.250  0.503E-10  0.951E-11  0.156E-10  0.156E-10  0.951E-11
 -0.240  0.839E-10  0.159E-10  0.261E-10  0.261E-10  0.159E-10
 -0.230  0.139E-09  0.263E-10  0.431E-10  0.431E-10  0.263E-10
 -0.220  0.227E-09  0.429E-10  0.703E-10  0.703E-10  0.429E-10
 -0.210  0.366E-09  0.695E-10  0.114E-09  0.114E-09  0.695E-10
 -0.200  0.585E-09  0.111E-09  0.182E-09  0.182E-09  0.111E-09
 -0.190  0.926E-09  0.176E-09  0.287E-09  0.287E-09  0.176E-09
 -0.180  0.145E-08  0.276E-09  0.449E-09  0.449E-09  0.276E-09
 -0.170  0.224E-08  0.427E-09  0.694E-09  0.694E-09  0.427E-09
 -0.160  0.343E-08  0.654E-09  0.106E-08  0.106E-08  0.654E-09
 -0.150  0.520E-08  0.992E-09  0.161E-08  0.161E-08  0.992E-09
 -0.140  0.779E-08  0.149E-08  0.241E-08  0.241E-08  0.149E-08
 -0.130  0.115E-07  0.221E-08  0.356E-08  0.356E-08  0.221E-08
 -0.120  0.169E-07  0.324E-08  0.522E-08  0.522E-08  0.324E-08
 -0.110  0.245E-07  0.471E-08  0.756E-08  0.756E-08  0.471E-08
 -0.100  0.352E-07  0.676E-08  0.108E-07  0.108E-07  0.676E-08
 -0.090  0.500E-07  0.961E-08  0.154E-07  0.154E-07  0.961E-08
 -0.080  0.702E-07  0.135E-07  0.216E-07  0.216E-07  0.135E-07
 -0.070  0.975E-07  0.188E-07  0.299E-07  0.299E-07  0.188E-07
 -0.060  0.134E-06  0.259E-07  0.411E-07  0.411E-07  0.259E-07
 -0.050  0.182E-06  0.353E-07  0.558E-07  0.558E-07  0.353E-07
 -0.040  0.245E-06  0.475E-07  0.750E-07  0.750E-07  0.475E-07
 -0.030  0.326E-06  0.634E-07  0.997E-07  0.997E-07  0.634E-07
 -0.020  0.429E-06  0.836E-07  0.131E-06  0.131E-06  0.836E-07
 -0.010  0.559E-06  0.109E-06  0.170E-06  0.170E-06  0.109E-06
  0.000  0.721E-06  0.141E-06  0.219E-06  0.219E-06  0.141E-06
  0.010  0.919E-06  0.180E-06  0.279E-06  0.279E-06  0.180E-06
  0.020  0.116E-05  0.228E-06  0.352E-06  0.352E-06  0.228E-06
  0.030  0.145E-05  0.285E-06  0.439E-06  0.439E-06  0.285E-06
  0.040  0.179E-05  0.354E-06  0.541E-06  0.541E-06  0.354E-06
  0.050  0.219E-05  0.434E-06  0.660E-06  0.660E-06  0.434E-06
  0.060  0.265E-05  0.527E-06  0.797E-06  0.797E-06  0.527E-06
  0.070  0.317E-05  0.633E-06  0.952E-06  0.952E-06  0.633E-06
  0.080  0.376E-05  0.753E-06  0.113E-05  0.113E-05  0.753E-06
  0.090  0.441E-05  0.887E-06  0.132E-05  0.132E-05  0.887E-06
  0.100  0.512E-05  0.104E-05  0.152E-05  0.152E-05  0.104E-05
  0.110  0.589E-05  0.120E-05  0.175E-05  0.175E-05  0.120E-05
  0.120  0.671E-05  0.137E-05  0.198E-05  0.198E-05  0.137E-05
  0.130  0.756E-05  0.155E-05  0.223E-05  0.223E-05  0.155E-05
  0.140  0.845E-05  0.175E-05  0.248E-05  0.248E-05  0.175E-05
  0.150  0.936E-05  0.195E-05  0.273E-05  0.273E-05  0.195E-05
  0.160  0.103E-04  0.215E-05  0.298E-05  0.298E-05  0.215E-05
  0.170  0.112E-04  0.236E-05  0.322E-05  0.322E-05  0.236E-05
  0.180  0.120E-04  0.257E-05  0.345E-05  0.345E-05  0.257E-05
  0.190  0.129E-04  0.278E-05  0.367E-05  0.367E-05  0.278E-05
  0.200  0.137E-04  0.298E-05  0.386E-05  0.386E-05  0.298E-05
  0.210  0.144E-04  0.318E-05  0.403E-05  0.403E-05  0.318E-05
  0.220  0.151E-04  0.338E-05  0.418E-05  0.418E-05  0.338E-05
  0.230  0.158E-04  0.357E-05  0.431E-05  0.431E-05  0.357E-05
  0.240  0.163E-04  0.376E-05  0.441E-05  0.441E-05  0.376E-05
  0.250  0.168E-04  0.394E-05  0.448E-05  0.448E-05  0.394E-05
  0.260  0.173E-04  0.412E-05  0.453E-05  0.453E-05  0.412E-05
  0.270  0.178E-04  0.431E-05  0.457E-05  0.457E-05  0.431E-05
  0.280  0.182E-04  0.450E-05  0.458E-05  0.458E-05  0.450E-05
  0.290  0.186E-04  0.470E-05  0.459E-05  0.459E-05  0.470E-05
  0.300  0.190E-04  0.491E-05  0.459E-05  0.459E-05  0.491E-05
  0.310  0.194E-04  0.513E-05  0.458E-05  0.458E-05  0.513E-05
  0.320  0.199E-04  0.537E-05  0.458E-05  0.458E-05  0.537E-05
  0.330  0.204E-04  0.563E-05  0.458E-05  0.458E-05  0.563E-05
  0.340  0.210E-04  0.591E-05  0.458E-05  0.458E-05  0.591E-05
  0.350  0.216E-04  0.621E-05  0.460E-05  0.460E-05  0.621E-05
  0.360  0.223E-04  0.653E-05  0.462E-05  0.462E-05  0.653E-05
  0.370  0.231E-04  0.687E-05  0.466E-05  0.466E-05  0.687E-05
  0.380  0.239E-04  0.724E-05  0.471E-05  0.471E-05  0.724E-05
  0.390  0.248E-04  0.763E-05  0.478E-05  0.478E-05  0.763E-05
  0.400  0.258E-04  0.803E-05  0.486E-05  0.486E-05  0.803E-05
  0.410  0.268E-04  0.845E-05  0.495E-05  0.495E-05  0.845E-05
  0.420  0.278E-04  0.888E-05  0.505E-05  0.505E-05  0.888E-05
  0.430  0.289E-04  0.932E-05  0.516E-05  0.516E-05  0.932E-05
  0.440  0.301E-04  0.976E-05  0.527E-05  0.527E-05  0.976E-05
  0.450  0.312E-04  0.102E-04  0.540E-05  0.540E-05  0.102E-04
  0.460  0.324E-04  0.107E-04  0.552E-05  0.552E-05  0.107E-04
  0.470  0.335E-04  0.111E-04  0.566E-05  0.566E-05  0.111E-04
  0.480  0.347E-04  0.116E-04  0.579E-05  0.579E-05  0.116E-04
  0.490  0.359E-04  0.120E-04  0.593E-05  0.593E-05  0.120E-04
  0.500  0.370E-04  0.125E-04  0.606E-05  0.606E-05  0.125E-04
  0.510  0.382E-04  0.129E-04  0.620E-05  0.620E-05  0.129E-04
  0.520  0.393E-04  0.133E-04  0.634E-05  0.634E-05  0.133E-04
  0.530  0.405E-04  0.138E-04  0.648E-05  0.648E-05  0.138E-04
  0.540  0.416E-04  0.142E-04  0.662E-05  0.662E-05  0.142E-04
  0.550  0.427E-04  0.146E-04  0.676E-05  0.676E-05  0.146E-04
  0.560  0.439E-04  0.150E-04  0.690E-05  0.690E-05  0.150E-04
  0.570  0.450E-04  0.155E-04  0.705E-05  0.705E-05  0.155E-04
  0.580  0.461E-04  0.159E-04  0.719E-05  0.719E-05  0.159E-04
  0.590  0.473E-04  0.163E-04  0.734E-05  0.734E-05  0.163E-04
  0.600  0.485E-04  0.167E-04  0.749E-05  0.749E-05  0.167E-04
  0.610  0.497E-04  0.172E-04  0.764E-05  0.764E-05  0.172E-04
  0.620  0.509E-04  0.176E-04  0.780E-05  0.780E-05  0.176E-04
  0.630  0.522E-04  0.181E-04  0.796E-05  0.796E-05  0.181E-04
  0.640  0.534E-04  0.186E-04  0.813E-05  0.813E-05  0.186E-04
  0.650  0.548E-04  0.191E-04  0.830E-05  0.830E-05  0.191E-04
  0.660  0.562E-04  0.196E-04  0.848E-05  0.848E-05  0.196E-04
  0.670  0.576E-04  0.201E-04  0.867E-05  0.867E-05  0.201E-04
  0.680  0.591E-04  0.207E-04  0.886E-05  0.886E-05  0.207E-04
  0.690  0.606E-04  0.213E-04  0.906E-05  0.906E-05  0.213E-04
  0.700  0.623E-04  0.219E-04  0.927E-05  0.927E-05  0.219E-04
  0.710  0.640E-04  0.225E-04  0.949E-05  0.949E-05  0.225E-04
  0.720  0.657E-04  0.231E-04  0.972E-05  0.972E-05  0.231E-04
  0.730  0.676E-04  0.238E-04  0.997E-05  0.997E-05  0.238E-04
  0.740  0.696E-04  0.246E-04  0.102E-04  0.102E-04  0.246E-04
  0.750  0.717E-04  0.254E-04  0.105E-04  0.105E-04  0.254E-04
  0.760  0.739E-04  0.262E-04  0.108E-04  0.108E-04  0.262E-04
  0.770  0.763E-04  0.271E-04  0.111E-04  0.111E-04  0.271E-04
  0.780  0.788E-04  0.280E-04  0.114E-04  0.114E-04  0.280E-04
  0.790  0.815E-04  0.290E-04  0.118E-04  0.118E-04  0.290E-04
  0.800  0.844E-04  0.300E-04  0.121E-04  0.121E-04  0.300E-04
  0.810  0.874E-04  0.312E-04  0.125E-04  0.125E-04  0.312E-04
  0.820  0.907E-04  0.324E-04  0.130E-04  0.130E-04  0.324E-04
  0.830  0.941E-04  0.336E-04  0.134E-04  0.134E-04  0.336E-04
  0.840  0.977E-04  0.350E-04  0.139E-04  0.139E-04  0.350E-04
  0.850  0.102E-03  0.364E-04  0.144E-04  0.144E-04  0.364E-04
  0.860  0.106E-03  0.378E-04  0.149E-04  0.149E-04  0.378E-04
  0.870  0.110E-03  0.393E-04  0.155E-04  0.155E-04  0.393E-04
  0.880  0.114E-03  0.409E-04  0.160E-04  0.160E-04  0.409E-04
  0.890  0.118E-03  0.425E-04  0.166E-04  0.166E-04  0.425E-04
  0.900  0.122E-03  0.440E-04  0.172E-04  0.172E-04  0.440E-04
  0.910  0.127E-03  0.455E-04  0.178E-04  0.178E-04  0.455E-04
  0.920  0.131E-03  0.470E-04  0.184E-04  0.184E-04  0.470E-04
  0.930  0.135E-03  0.484E-04  0.190E-04  0.190E-04  0.484E-04
  0.940  0.138E-03  0.496E-04  0.195E-04  0.195E-04  0.496E-04
  0.950  0.141E-03  0.507E-04  0.200E-04  0.200E-04  0.507E-04
  0.960  0.144E-03  0.515E-04  0.204E-04  0.204E-04  0.515E-04
  0.970  0.146E-03  0.521E-04  0.208E-04  0.208E-04  0.521E-04
  0.980  0.147E-03  0.524E-04  0.210E-04  0.210E-04  0.524E-04
  0.990  0.147E-03  0.524E-04  0.212E-04  0.212E-04  0.524E-04
  1.000  0.147E-03  0.521E-04  0.212E-04  0.212E-04  0.521E-04
  1.010  0.145E-03  0.514E-04  0.211E-04  0.211E-04  0.514E-04
  1.020  0.142E-03  0.503E-04  0.209E-04  0.209E-04  0.503E-04
  1.030  0.139E-03  0.489E-04  0.206E-04  0.206E-04  0.489E-04
  1.040  0.135E-03  0.472E-04  0.201E-04  0.201E-04  0.472E-04
  1.050  0.129E-03  0.452E-04  0.194E-04  0.194E-04  0.452E-04
  1.060  0.123E-03  0.429E-04  0.187E-04  0.187E-04  0.429E-04
  1.070  0.116E-03  0.404E-04  0.178E-04  0.178E-04  0.404E-04
  1.080  0.109E-03  0.377E-04  0.169E-04  0.169E-04  0.377E-04
  1.090  0.101E-03  0.349E-04  0.159E-04  0.159E-04  0.349E-04
  1.100  0.936E-04  0.320E-04  0.148E-04  0.148E-04  0.320E-04
  1.110  0.857E-04  0.292E-04  0.137E-04  0.137E-04  0.292E-04
  1.120  0.779E-04  0.264E-04  0.126E-04  0.126E-04  0.264E-04
  1.130  0.704E-04  0.237E-04  0.115E-04  0.115E-04  0.237E-04
  1.140  0.632E-04  0.212E-04  0.105E-04  0.105E-04  0.212E-04
  1.150  0.566E-04  0.188E-04  0.946E-05  0.946E-05  0.188E-04
  1.160  0.504E-04  0.167E-04  0.853E-05  0.853E-05  0.167E-04
  1.170  0.449E-04  0.148E-04  0.768E-05  0.768E-05  0.148E-04
  1.180  0.400E-04  0.131E-04  0.692E-05  0.692E-05  0.131E-04
  1.190  0.358E-04  0.117E-04  0.625E-05  0.625E-05  0.117E-04
  1.200  0.322E-04  0.105E-04  0.566E-05  0.566E-05  0.105E-04
  1.210  0.292E-04  0.945E-05  0.517E-05  0.517E-05  0.945E-05
  1.220  0.268E-04  0.864E-05  0.475E-05  0.475E-05  0.864E-05
  1.230  0.248E-04  0.800E-05  0.441E-05  0.441E-05  0.800E-05
  1.240  0.233E-04  0.751E-05  0.414E-05  0.414E-05  0.751E-05
  1.250  0.221E-04  0.714E-05  0.393E-05  0.393E-05  0.714E-05
  1.260  0.213E-04  0.686E-05  0.376E-05  0.376E-05  0.686E-05
  1.270  0.206E-04  0.667E-05  0.364E-05  0.364E-05  0.667E-05
  1.280  0.201E-04  0.653E-05  0.354E-05  0.354E-05  0.653E-05
  1.290  0.198E-04  0.643E-05  0.347E-05  0.347E-05  0.643E-05
  1.300  0.196E-04  0.636E-05  0.342E-05  0.342E-05  0.636E-05
  1.310  0.194E-04  0.631E-05  0.338E-05  0.338E-05  0.631E-05
  1.320  0.192E-04  0.626E-05  0.335E-05  0.335E-05  0.626E-05
  1.330  0.191E-04  0.622E-05  0.332E-05  0.332E-05  0.622E-05
  1.340  0.189E-04  0.618E-05  0.329E-05  0.329E-05  0.618E-05
  1.350  0.188E-04  0.613E-05  0.326E-05  0.326E-05  0.613E-05
  1.360  0.186E-04  0.607E-05  0.323E-05  0.323E-05  0.607E-05
  1.370  0.184E-04  0.601E-05  0.320E-05  0.320E-05  0.601E-05
  1.380  0.182E-04  0.595E-05  0.317E-05  0.317E-05  0.595E-05
  1.390  0.180E-04  0.588E-05  0.314E-05  0.314E-05  0.588E-05
  1.400  0.178E-04  0.581E-05  0.310E-05  0.310E-05  0.581E-05
  1.410  0.176E-04  0.573E-05  0.307E-05  0.307E-05  0.573E-05
  1.420  0.174E-04  0.566E-05  0.303E-05  0.303E-05  0.566E-05
  1.430  0.171E-04  0.558E-05  0.299E-05  0.299E-05  0.558E-05
  1.440  0.169E-04  0.550E-05  0.296E-05  0.296E-05  0.550E-05
  1.450  0.167E-04  0.543E-05  0.292E-05  0.292E-05  0.543E-05
  1.460  0.165E-04  0.535E-05  0.289E-05  0.289E-05  0.535E-05
  1.470  0.163E-04  0.528E-05  0.285E-05  0.285E-05  0.528E-05
  1.480  0.160E-04  0.520E-05  0.281E-05  0.281E-05  0.520E-05
  1.490  0.158E-04  0.513E-05  0.278E-05  0.278E-05  0.513E-05
  1.500  0.156E-04  0.506E-05  0.275E-05  0.275E-05  0.506E-05
  1.510  0.154E-04  0.500E-05  0.271E-05  0.271E-05  0.500E-05
  1.520  0.152E-04  0.493E-05  0.268E-05  0.268E-05  0.493E-05
  1.530  0.150E-04  0.487E-05  0.265E-05  0.265E-05  0.487E-05
  1.540  0.149E-04  0.481E-05  0.262E-05  0.262E-05  0.481E-05
  1.550  0.147E-04  0.475E-05  0.259E-05  0.259E-05  0.475E-05
  1.560  0.145E-04  0.469E-05  0.257E-05  0.257E-05  0.469E-05
  1.570  0.143E-04  0.463E-05  0.254E-05  0.254E-05  0.463E-05
  1.580  0.142E-04  0.457E-05  0.251E-05  0.251E-05  0.457E-05
  1.590  0.140E-04  0.452E-05  0.248E-05  0.248E-05  0.452E-05
  1.600  0.139E-04  0.447E-05  0.246E-05  0.246E-05  0.447E-05
  1.610  0.137E-04  0.442E-05  0.243E-05  0.243E-05  0.442E-05
  1.620  0.136E-04  0.437E-05  0.241E-05  0.241E-05  0.437E-05
  1.630  0.134E-04  0.432E-05  0.239E-05  0.239E-05  0.432E-05
  1.640  0.133E-04  0.427E-05  0.236E-05  0.236E-05  0.427E-05
  1.650  0.131E-04  0.422E-05  0.234E-05  0.234E-05  0.422E-05
  1.660  0.130E-04  0.418E-05  0.232E-05  0.232E-05  0.418E-05
  1.670  0.129E-04  0.414E-05  0.230E-05  0.230E-05  0.414E-05
  1.680  0.127E-04  0.409E-05  0.228E-05  0.228E-05  0.409E-05
  1.690  0.126E-04  0.405E-05  0.226E-05  0.226E-05  0.405E-05
  1.700  0.125E-04  0.401E-05  0.224E-05  0.224E-05  0.401E-05
  1.710  0.124E-04  0.397E-05  0.222E-05  0.222E-05  0.397E-05
  1.720  0.123E-04  0.393E-05  0.220E-05  0.220E-05  0.393E-05
  1.730  0.122E-04  0.390E-05  0.218E-05  0.218E-05  0.390E-05
  1.740  0.120E-04  0.386E-05  0.216E-05  0.216E-05  0.386E-05
  1.750  0.119E-04  0.382E-05  0.215E-05  0.215E-05  0.382E-05
  1.760  0.118E-04  0.379E-05  0.213E-05  0.213E-05  0.379E-05
  1.770  0.117E-04  0.376E-05  0.211E-05  0.211E-05  0.376E-05
  1.780  0.116E-04  0.372E-05  0.210E-05  0.210E-05  0.372E-05
  1.790  0.115E-04  0.369E-05  0.208E-05  0.208E-05  0.369E-05
  1.800  0.115E-04  0.366E-05  0.207E-05  0.207E-05  0.366E-05
  1.810  0.114E-04  0.363E-05  0.205E-05  0.205E-05  0.363E-05
  1.820  0.113E-04  0.360E-05  0.204E-05  0.204E-05  0.360E-05
  1.830  0.112E-04  0.357E-05  0.202E-05  0.202E-05  0.357E-05
  1.840  0.111E-04  0.354E-05  0.201E-05  0.201E-05  0.354E-05
  1.850  0.110E-04  0.352E-05  0.199E-05  0.199E-05  0.352E-05
  1.860  0.109E-04  0.349E-05  0.198E-05  0.198E-05  0.349E-05
  1.870  0.109E-04  0.346E-05  0.197E-05  0.197E-05  0.346E-05
  1.880  0.108E-04  0.344E-05  0.195E-05  0.195E-05  0.344E-05
  1.890  0.107E-04  0.341E-05  0.194E-05  0.194E-05  0.341E-05
  1.900  0.106E-04  0.339E-05  0.193E-05  0.193E-05  0.339E-05
  1.910  0.105E-04  0.336E-05  0.191E-05  0.191E-05  0.336E-05
  1.920  0.105E-04  0.334E-05  0.190E-05  0.190E-05  0.334E-05
  1.930  0.104E-04  0.331E-05  0.189E-05  0.189E-05  0.331E-05
  1.940  0.103E-04  0.329E-05  0.188E-05  0.188E-05  0.329E-05
  1.950  0.103E-04  0.327E-05  0.187E-05  0.187E-05  0.327E-05
  1.960  0.102E-04  0.325E-05  0.186E-05  0.186E-05  0.325E-05
  1.970  0.101E-04  0.322E-05  0.184E-05  0.184E-05  0.322E-05
  1.980  0.101E-04  0.320E-05  0.183E-05  0.183E-05  0.320E-05
  1.990  0.100E-04  0.318E-05  0.182E-05  0.182E-05  0.318E-05
  2.000  0.995E-05  0.316E-05  0.181E-05  0.181E-05  0.316E-05
  2.010  0.989E-05  0.314E-05  0.180E-05  0.180E-05  0.314E-05
  2.020  0.983E-05  0.312E-05  0.179E-05  0.179E-05  0.312E-05
  2.030  0.977E-05  0.310E-05  0.178E-05  0.178E-05  0.310E-05
  2.040  0.971E-05  0.308E-05  0.177E-05  0.177E-05  0.308E-05
  2.050  0.965E-05  0.306E-05  0.176E-05  0.176E-05  0.306E-05
  2.060  0.960E-05  0.305E-05  0.175E-05  0.175E-05  0.305E-05
  2.070  0.954E-05  0.303E-05  0.174E-05  0.174E-05  0.303E-05
  2.080  0.949E-05  0.301E-05  0.173E-05  0.173E-05  0.301E-05
  2.090  0.944E-05  0.299E-05  0.173E-05  0.173E-05  0.299E-05
  2.100  0.938E-05  0.298E-05  0.172E-05  0.172E-05  0.298E-05
  2.110  0.933E-05  0.296E-05  0.171E-05  0.171E-05  0.296E-05
  2.120  0.928E-05  0.294E-05  0.170E-05  0.170E-05  0.294E-05
  2.130  0.923E-05  0.293E-05  0.169E-05  0.169E-05  0.293E-05
  2.140  0.918E-05  0.291E-05  0.168E-05  0.168E-05  0.291E-05
  2.150  0.913E-05  0.289E-05  0.167E-05  0.167E-05  0.289E-05
  2.160  0.908E-05  0.288E-05  0.166E-05  0.166E-05  0.288E-05
  2.170  0.904E-05  0.286E-05  0.166E-05  0.166E-05  0.286E-05
  2.180  0.899E-05  0.285E-05  0.165E-05  0.165E-05  0.285E-05
  2.190  0.894E-05  0.283E-05  0.164E-05  0.164E-05  0.283E-05
  2.200  0.890E-05  0.282E-05  0.163E-05  0.163E-05  0.282E-05
  2.210  0.885E-05  0.280E-05  0.162E-05  0.162E-05  0.280E-05
  2.220  0.880E-05  0.279E-05  0.162E-05  0.162E-05  0.279E-05
  2.230  0.876E-05  0.277E-05  0.161E-05  0.161E-05  0.277E-05
  2.240  0.872E-05  0.276E-05  0.160E-05  0.160E-05  0.276E-05
  2.250  0.867E-05  0.274E-05  0.159E-05  0.159E-05  0.274E-05
  2.260  0.863E-05  0.273E-05  0.158E-05  0.158E-05  0.273E-05
  2.270  0.858E-05  0.272E-05  0.158E-05  0.158E-05  0.272E-05
  2.280  0.854E-05  0.270E-05  0.157E-05  0.157E-05  0.270E-05
  2.290  0.850E-05  0.269E-05  0.156E-05  0.156E-05  0.269E-05
  2.300  0.846E-05  0.267E-05  0.155E-05  0.155E-05  0.267E-05
  2.310  0.841E-05  0.266E-05  0.155E-05  0.155E-05  0.266E-05
  2.320  0.837E-05  0.265E-05  0.154E-05  0.154E-05  0.265E-05
  2.330  0.833E-05  0.263E-05  0.153E-05  0.153E-05  0.263E-05
  2.340  0.829E-05  0.262E-05  0.152E-05  0.152E-05  0.262E-05
  2.350  0.824E-05  0.261E-05  0.152E-05  0.152E-05  0.261E-05
  2.360  0.820E-05  0.259E-05  0.151E-05  0.151E-05  0.259E-05
  2.370  0.815E-05  0.258E-05  0.150E-05  0.150E-05  0.258E-05
  2.380  0.811E-05  0.256E-05  0.149E-05  0.149E-05  0.256E-05
  2.390  0.806E-05  0.255E-05  0.148E-05  0.148E-05  0.255E-05
  2.400  0.801E-05  0.253E-05  0.147E-05  0.147E-05  0.253E-05
  2.410  0.795E-05  0.251E-05  0.146E-05  0.146E-05  0.251E-05
  2.420  0.789E-05  0.250E-05  0.145E-05  0.145E-05  0.250E-05
  2.430  0.783E-05  0.248E-05  0.144E-05  0.144E-05  0.248E-05
  2.440  0.776E-05  0.245E-05  0.142E-05  0.142E-05  0.245E-05
  2.450  0.768E-05  0.243E-05  0.141E-05  0.141E-05  0.243E-05
  2.460  0.759E-05  0.240E-05  0.139E-05  0.139E-05  0.240E-05
  2.470  0.748E-05  0.237E-05  0.137E-05  0.137E-05  0.237E-05
  2.480  0.737E-05  0.233E-05  0.135E-05  0.135E-05  0.233E-05
  2.490  0.723E-05  0.229E-05  0.133E-05  0.133E-05  0.229E-05
  2.500  0.708E-05  0.224E-05  0.130E-05  0.130E-05  0.224E-05
  2.510  0.691E-05  0.219E-05  0.127E-05  0.127E-05  0.219E-05
  2.520  0.672E-05  0.213E-05  0.123E-05  0.123E-05  0.213E-05
  2.530  0.650E-05  0.206E-05  0.119E-05  0.119E-05  0.206E-05
  2.540  0.625E-05  0.198E-05  0.114E-05  0.114E-05  0.198E-05
  2.550  0.598E-05  0.190E-05  0.109E-05  0.109E-05  0.190E-05
  2.560  0.568E-05  0.180E-05  0.104E-05  0.104E-05  0.180E-05
  2.570  0.536E-05  0.170E-05  0.978E-06  0.978E-06  0.170E-05
  2.580  0.502E-05  0.159E-05  0.914E-06  0.914E-06  0.159E-05
  2.590  0.465E-05  0.148E-05  0.846E-06  0.846E-06  0.148E-05
  2.600  0.426E-05  0.136E-05  0.774E-06  0.774E-06  0.136E-05
  2.610  0.386E-05  0.123E-05  0.700E-06  0.700E-06  0.123E-05
  2.620  0.344E-05  0.110E-05  0.624E-06  0.624E-06  0.110E-05
  2.630  0.303E-05  0.966E-06  0.548E-06  0.548E-06  0.966E-06
  2.640  0.261E-05  0.834E-06  0.472E-06  0.472E-06  0.834E-06
  2.650  0.220E-05  0.705E-06  0.397E-06  0.397E-06  0.705E-06
  2.660  0.181E-05  0.579E-06  0.325E-06  0.325E-06  0.579E-06
  2.670  0.143E-05  0.459E-06  0.256E-06  0.256E-06  0.459E-06
  2.680  0.108E-05  0.347E-06  0.191E-06  0.191E-06  0.347E-06
  2.690  0.752E-06  0.243E-06  0.132E-06  0.132E-06  0.243E-06
  2.700  0.459E-06  0.150E-06  0.793E-07  0.793E-07  0.150E-06
  2.710  0.201E-06  0.677E-07  0.326E-07  0.326E-07  0.677E-07
  2.720 -0.211E-07 -0.316E-08 -0.737E-08 -0.737E-08 -0.316E-08
  2.730 -0.206E-06 -0.623E-07 -0.406E-07 -0.406E-07 -0.623E-07
  2.740 -0.354E-06 -0.110E-06 -0.672E-07 -0.672E-07 -0.110E-06
  2.750 -0.468E-06 -0.146E-06 -0.874E-07 -0.874E-07 -0.146E-06
  2.760 -0.549E-06 -0.173E-06 -0.102E-06 -0.102E-06 -0.173E-06
  2.770 -0.600E-06 -0.189E-06 -0.111E-06 -0.111E-06 -0.189E-06
  2.780 -0.625E-06 -0.198E-06 -0.115E-06 -0.115E-06 -0.198E-06
  2.790 -0.629E-06 -0.199E-06 -0.115E-06 -0.115E-06 -0.199E-06
  2.800 -0.614E-06 -0.195E-06 -0.112E-06 -0.112E-06 -0.195E-06
  2.810 -0.585E-06 -0.186E-06 -0.107E-06 -0.107E-06 -0.186E-06
  2.820 -0.546E-06 -0.173E-06 -0.993E-07 -0.993E-07 -0.173E-06
  2.830 -0.499E-06 -0.159E-06 -0.907E-07 -0.907E-07 -0.159E-06
  2.840 -0.449E-06 -0.143E-06 -0.814E-07 -0.814E-07 -0.143E-06
  2.850 -0.397E-06 -0.126E-06 -0.719E-07 -0.719E-07 -0.126E-06
  2.860 -0.345E-06 -0.110E-06 -0.625E-07 -0.625E-07 -0.110E-06
  2.870 -0.296E-06 -0.946E-07 -0.536E-07 -0.536E-07 -0.946E-07
  2.880 -0.251E-06 -0.801E-07 -0.453E-07 -0.453E-07 -0.801E-07
  2.890 -0.209E-06 -0.669E-07 -0.377E-07 -0.377E-07 -0.669E-07
  2.900 -0.172E-06 -0.551E-07 -0.310E-07 -0.310E-07 -0.551E-07
  2.910 -0.140E-06 -0.448E-07 -0.252E-07 -0.252E-07 -0.448E-07
  2.920 -0.112E-06 -0.360E-07 -0.202E-07 -0.202E-07 -0.360E-07
  2.930 -0.892E-07 -0.286E-07 -0.160E-07 -0.160E-07 -0.286E-07
  2.940 -0.698E-07 -0.224E-07 -0.125E-07 -0.125E-07 -0.224E-07
  2.950 -0.540E-07 -0.173E-07 -0.969E-08 -0.969E-08 -0.173E-07
  2.960 -0.413E-07 -0.133E-07 -0.740E-08 -0.740E-08 -0.133E-07
  2.970 -0.312E-07 -0.100E-07 -0.559E-08 -0.559E-08 -0.100E-07
  2.980 -0.233E-07 -0.748E-08 -0.417E-08 -0.417E-08 -0.748E-08
  2.990 -0.172E-07 -0.553E-08 -0.307E-08 -0.307E-08 -0.553E-08
  3.000 -0.126E-07 -0.403E-08 -0.224E-08 -0.224E-08 -0.403E-08
  3.010 -0.905E-08 -0.291E-08 -0.162E-08 -0.162E-08 -0.291E-08
  3.020 -0.646E-08 -0.208E-08 -0.115E-08 -0.115E-08 -0.208E-08
  3.030 -0.455E-08 -0.146E-08 -0.811E-09 -0.811E-09 -0.146E-08
  3.040 -0.317E-08 -0.102E-08 -0.565E-09 -0.565E-09 -0.102E-08
  3.050 -0.219E-08 -0.704E-09 -0.389E-09 -0.389E-09 -0.704E-09
  3.060 -0.149E-08 -0.480E-09 -0.265E-09 -0.265E-09 -0.480E-09
  3.070 -0.100E-08 -0.324E-09 -0.178E-09 -0.178E-09 -0.324E-09
  3.080 -0.669E-09 -0.216E-09 -0.119E-09 -0.119E-09 -0.216E-09
  3.090 -0.441E-09 -0.142E-09 -0.783E-10 -0.783E-10 -0.142E-09
  3.100 -0.288E-09 -0.928E-10 -0.510E-10 -0.510E-10 -0.928E-10
  3.110 -0.185E-09 -0.598E-10 -0.328E-10 -0.328E-10 -0.598E-10
  3.120 -0.118E-09 -0.381E-10 -0.209E-10 -0.209E-10 -0.381E-10
  3.130 -0.745E-10 -0.241E-10 -0.132E-10 -0.132E-10 -0.241E-10
  3.140 -0.464E-10 -0.150E-10 -0.821E-11 -0.821E-11 -0.150E-10
  3.150 -0.286E-10 -0.925E-11 -0.506E-11 -0.506E-11 -0.925E-11
  3.160 -0.175E-10 -0.564E-11 -0.308E-11 -0.308E-11 -0.564E-11
  3.170 -0.105E-10 -0.340E-11 -0.186E-11 -0.186E-11 -0.340E-11
  3.180 -0.628E-11 -0.203E-11 -0.111E-11 -0.111E-11 -0.203E-11
  3.190 -0.370E-11 -0.120E-11 -0.652E-12 -0.652E-12 -0.120E-11
  3.200 -0.216E-11 -0.699E-12 -0.380E-12 -0.380E-12 -0.699E-12
  3.210 -0.123E-11 -0.400E-12 -0.217E-12 -0.217E-12 -0.400E-12
  3.220 -0.705E-12 -0.228E-12 -0.124E-12 -0.124E-12 -0.228E-12
  3.230 -0.393E-12 -0.128E-12 -0.692E-13 -0.692E-13 -0.128E-12
  3.240 -0.220E-12 -0.714E-13 -0.387E-13 -0.387E-13 -0.714E-13
  3.250 -0.111E-12 -0.361E-13 -0.196E-13 -0.196E-13 -0.361E-13
  3.260 -0.534E-13 -0.175E-13 -0.923E-14 -0.923E-14 -0.175E-13
  3.270 -0.287E-13 -0.936E-14 -0.498E-14 -0.498E-14 -0.936E-14
  3.280 -0.147E-13 -0.475E-14 -0.260E-14 -0.260E-14 -0.475E-14
  3.290  0.209E-14  0.802E-15  0.242E-15  0.242E-15  0.802E-15
  3.300  0.414E-14  0.159E-14  0.479E-15  0.479E-15  0.159E-14
  3.310  0.811E-14  0.312E-14  0.939E-15  0.939E-15  0.312E-14
  3.320  0.157E-13  0.604E-14  0.182E-14  0.182E-14  0.604E-14
  3.330  0.302E-13  0.116E-13  0.350E-14  0.350E-14  0.116E-13
  3.340  0.573E-13  0.220E-13  0.664E-14  0.664E-14  0.220E-13
  3.350  0.108E-12  0.413E-13  0.125E-13  0.125E-13  0.413E-13
  3.360  0.200E-12  0.767E-13  0.231E-13  0.231E-13  0.767E-13
  3.370  0.367E-12  0.141E-12  0.425E-13  0.425E-13  0.141E-12
  3.380  0.667E-12  0.256E-12  0.773E-13  0.773E-13  0.256E-12
  3.390  0.120E-11  0.460E-12  0.139E-12  0.139E-12  0.460E-12
  3.400  0.213E-11  0.819E-12  0.247E-12  0.247E-12  0.819E-12
  3.410  0.375E-11  0.144E-11  0.435E-12  0.435E-12  0.144E-11
  3.420  0.653E-11  0.251E-11  0.757E-12  0.757E-12  0.251E-11
  3.430  0.112E-10  0.431E-11  0.130E-11  0.130E-11  0.431E-11
  3.440  0.191E-10  0.735E-11  0.222E-11  0.222E-11  0.735E-11
  3.450  0.322E-10  0.124E-10  0.374E-11  0.374E-11  0.124E-10
  3.460  0.537E-10  0.206E-10  0.623E-11  0.623E-11  0.206E-10
  3.470  0.885E-10  0.340E-10  0.103E-10  0.103E-10  0.340E-10
  3.480  0.144E-09  0.554E-10  0.168E-10  0.168E-10  0.554E-10
  3.490  0.233E-09  0.894E-10  0.271E-10  0.271E-10  0.894E-10
  3.500  0.372E-09  0.143E-09  0.432E-10  0.432E-10  0.143E-09
  3.510  0.587E-09  0.225E-09  0.682E-10  0.682E-10  0.225E-09
  3.520  0.917E-09  0.352E-09  0.107E-09  0.107E-09  0.352E-09
  3.530  0.142E-08  0.543E-09  0.165E-09  0.165E-09  0.543E-09
  3.540  0.216E-08  0.831E-09  0.252E-09  0.252E-09  0.831E-09
  3.550  0.327E-08  0.126E-08  0.381E-09  0.381E-09  0.126E-08
  3.560  0.490E-08  0.188E-08  0.570E-09  0.570E-09  0.188E-08
  3.570  0.725E-08  0.278E-08  0.843E-09  0.843E-09  0.278E-08
  3.580  0.106E-07  0.407E-08  0.124E-08  0.124E-08  0.407E-08
  3.590  0.154E-07  0.590E-08  0.179E-08  0.179E-08  0.590E-08
  3.600  0.220E-07  0.846E-08  0.257E-08  0.257E-08  0.846E-08
  3.610  0.313E-07  0.120E-07  0.364E-08  0.364E-08  0.120E-07
  3.620  0.439E-07  0.168E-07  0.511E-08  0.511E-08  0.168E-07
  3.630  0.609E-07  0.234E-07  0.709E-08  0.709E-08  0.234E-07
  3.640  0.837E-07  0.321E-07  0.975E-08  0.975E-08  0.321E-07
  3.650  0.114E-06  0.436E-07  0.132E-07  0.132E-07  0.436E-07
  3.660  0.153E-06  0.587E-07  0.178E-07  0.178E-07  0.587E-07
  3.670  0.204E-06  0.782E-07  0.237E-07  0.237E-07  0.782E-07
  3.680  0.269E-06  0.103E-06  0.313E-07  0.313E-07  0.103E-06
  3.690  0.350E-06  0.134E-06  0.408E-07  0.408E-07  0.134E-06
  3.700  0.452E-06  0.173E-06  0.526E-07  0.526E-07  0.173E-06
  3.710  0.578E-06  0.222E-06  0.672E-07  0.672E-07  0.222E-06
  3.720  0.731E-06  0.280E-06  0.850E-07  0.850E-07  0.280E-06
  3.730  0.915E-06  0.351E-06  0.106E-06  0.106E-06  0.351E-06
  3.740  0.113E-05  0.435E-06  0.132E-06  0.132E-06  0.435E-06
  3.750  0.139E-05  0.534E-06  0.162E-06  0.162E-06  0.534E-06
  3.760  0.169E-05  0.650E-06  0.197E-06  0.197E-06  0.650E-06
  3.770  0.204E-05  0.782E-06  0.237E-06  0.237E-06  0.782E-06
  3.780  0.243E-05  0.933E-06  0.282E-06  0.282E-06  0.933E-06
  3.790  0.287E-05  0.110E-05  0.333E-06  0.333E-06  0.110E-05
  3.800  0.336E-05  0.129E-05  0.390E-06  0.390E-06  0.129E-05
  3.810  0.390E-05  0.150E-05  0.452E-06  0.452E-06  0.150E-05
  3.820  0.448E-05  0.172E-05  0.519E-06  0.519E-06  0.172E-05
  3.830  0.510E-05  0.196E-05  0.591E-06  0.591E-06  0.196E-05
  3.840  0.577E-05  0.222E-05  0.667E-06  0.667E-06  0.222E-05
  3.850  0.646E-05  0.248E-05  0.747E-06  0.747E-06  0.248E-05
  3.860  0.718E-05  0.276E-05  0.829E-06  0.829E-06  0.276E-05
  3.870  0.791E-05  0.304E-05  0.914E-06  0.914E-06  0.304E-05
  3.880  0.865E-05  0.333E-05  0.999E-06  0.999E-06  0.333E-05
  3.890  0.939E-05  0.361E-05  0.108E-05  0.108E-05  0.361E-05
  3.900  0.101E-04  0.389E-05  0.117E-05  0.117E-05  0.389E-05
  3.910  0.108E-04  0.416E-05  0.125E-05  0.125E-05  0.416E-05
  3.920  0.115E-04  0.442E-05  0.133E-05  0.133E-05  0.442E-05
  3.930  0.121E-04  0.466E-05  0.141E-05  0.141E-05  0.466E-05
  3.940  0.127E-04  0.489E-05  0.148E-05  0.148E-05  0.489E-05
  3.950  0.133E-04  0.510E-05  0.155E-05  0.155E-05  0.510E-05
  3.960  0.138E-04  0.529E-05  0.162E-05  0.162E-05  0.529E-05
  3.970  0.143E-04  0.545E-05  0.168E-05  0.168E-05  0.545E-05
  3.980  0.147E-04  0.559E-05  0.174E-05  0.174E-05  0.559E-05
  3.990  0.150E-04  0.572E-05  0.180E-05  0.180E-05  0.572E-05
  4.000  0.154E-04  0.582E-05  0.186E-05  0.186E-05  0.582E-05
  4.010  0.156E-04  0.590E-05  0.192E-05  0.192E-05  0.590E-05
  4.020  0.159E-04  0.597E-05  0.198E-05  0.198E-05  0.597E-05
  4.030  0.161E-04  0.603E-05  0.204E-05  0.204E-05  0.603E-05
  4.040  0.164E-04  0.608E-05  0.210E-05  0.210E-05  0.608E-05
  4.050  0.166E-04  0.613E-05  0.218E-05  0.218E-05  0.613E-05
  4.060  0.169E-04  0.618E-05  0.225E-05  0.225E-05  0.618E-05
  4.070  0.171E-04  0.623E-05  0.234E-05  0.234E-05  0.623E-05
  4.080  0.174E-04  0.629E-05  0.243E-05  0.243E-05  0.629E-05
  4.090  0.178E-04  0.635E-05  0.253E-05  0.253E-05  0.635E-05
  4.100  0.181E-04  0.643E-05  0.263E-05  0.263E-05  0.643E-05
  4.110  0.185E-04  0.652E-05  0.274E-05  0.274E-05  0.652E-05
  4.120  0.190E-04  0.662E-05  0.285E-05  0.285E-05  0.662E-05
  4.130  0.194E-04  0.674E-05  0.297E-05  0.297E-05  0.674E-05
  4.140  0.199E-04  0.686E-05  0.309E-05  0.309E-05  0.686E-05
  4.150  0.204E-04  0.699E-05  0.320E-05  0.320E-05  0.699E-05
  4.160  0.209E-04  0.712E-05  0.331E-05  0.331E-05  0.712E-05
  4.170  0.214E-04  0.726E-05  0.342E-05  0.342E-05  0.726E-05
  4.180  0.218E-04  0.739E-05  0.352E-05  0.352E-05  0.739E-05
  4.190  0.223E-04  0.752E-05  0.362E-05  0.362E-05  0.752E-05
  4.200  0.227E-04  0.764E-05  0.371E-05  0.371E-05  0.764E-05
  4.210  0.231E-04  0.776E-05  0.379E-05  0.379E-05  0.776E-05
  4.220  0.235E-04  0.787E-05  0.387E-05  0.387E-05  0.787E-05
  4.230  0.238E-04  0.797E-05  0.395E-05  0.395E-05  0.797E-05
  4.240  0.242E-04  0.806E-05  0.403E-05  0.403E-05  0.806E-05
  4.250  0.245E-04  0.814E-05  0.411E-05  0.411E-05  0.814E-05
  4.260  0.248E-04  0.821E-05  0.421E-05  0.421E-05  0.821E-05
  4.270  0.252E-04  0.829E-05  0.432E-05  0.432E-05  0.829E-05
  4.280  0.256E-04  0.836E-05  0.445E-05  0.445E-05  0.836E-05
  4.290  0.261E-04  0.843E-05  0.461E-05  0.461E-05  0.843E-05
  4.300  0.266E-04  0.850E-05  0.479E-05  0.479E-05  0.850E-05
  4.310  0.272E-04  0.858E-05  0.501E-05  0.501E-05  0.858E-05
  4.320  0.278E-04  0.867E-05  0.525E-05  0.525E-05  0.867E-05
  4.330  0.286E-04  0.876E-05  0.553E-05  0.553E-05  0.876E-05
  4.340  0.294E-04  0.886E-05  0.584E-05  0.584E-05  0.886E-05
  4.350  0.303E-04  0.897E-05  0.618E-05  0.618E-05  0.897E-05
  4.360  0.313E-04  0.908E-05  0.655E-05  0.655E-05  0.908E-05
  4.370  0.323E-04  0.920E-05  0.693E-05  0.693E-05  0.920E-05
  4.380  0.333E-04  0.932E-05  0.733E-05  0.733E-05  0.932E-05
  4.390  0.343E-04  0.944E-05  0.773E-05  0.773E-05  0.944E-05
  4.400  0.354E-04  0.956E-05  0.813E-05  0.813E-05  0.956E-05
  4.410  0.364E-04  0.968E-05  0.851E-05  0.851E-05  0.968E-05
  4.420  0.373E-04  0.979E-05  0.886E-05  0.886E-05  0.979E-05
  4.430  0.381E-04  0.989E-05  0.919E-05  0.919E-05  0.989E-05
  4.440  0.389E-04  0.997E-05  0.947E-05  0.947E-05  0.997E-05
  4.450  0.395E-04  0.100E-04  0.970E-05  0.970E-05  0.100E-04
  4.460  0.400E-04  0.101E-04  0.989E-05  0.989E-05  0.101E-04
  4.470  0.403E-04  0.101E-04  0.100E-04  0.100E-04  0.101E-04
  4.480  0.404E-04  0.101E-04  0.101E-04  0.101E-04  0.101E-04
  4.490  0.404E-04  0.101E-04  0.101E-04  0.101E-04  0.101E-04
  4.500  0.403E-04  0.101E-04  0.100E-04  0.100E-04  0.101E-04
  4.510  0.400E-04  0.101E-04  0.992E-05  0.992E-05  0.101E-04
  4.520  0.396E-04  0.100E-04  0.977E-05  0.977E-05  0.100E-04
  4.530  0.391E-04  0.998E-05  0.959E-05  0.959E-05  0.998E-05
  4.540  0.385E-04  0.991E-05  0.937E-05  0.937E-05  0.991E-05
  4.550  0.379E-04  0.983E-05  0.912E-05  0.912E-05  0.983E-05
  4.560  0.372E-04  0.974E-05  0.886E-05  0.886E-05  0.974E-05
  4.570  0.365E-04  0.965E-05  0.860E-05  0.860E-05  0.965E-05
  4.580  0.358E-04  0.956E-05  0.833E-05  0.833E-05  0.956E-05
  4.590  0.351E-04  0.948E-05  0.807E-05  0.807E-05  0.948E-05
  4.600  0.344E-04  0.940E-05  0.783E-05  0.783E-05  0.940E-05
  4.610  0.338E-04  0.932E-05  0.759E-05  0.759E-05  0.932E-05
  4.620  0.333E-04  0.925E-05  0.738E-05  0.738E-05  0.925E-05
  4.630  0.328E-04  0.919E-05  0.719E-05  0.719E-05  0.919E-05
  4.640  0.323E-04  0.914E-05  0.702E-05  0.702E-05  0.914E-05
  4.650  0.319E-04  0.909E-05  0.687E-05  0.687E-05  0.909E-05
  4.660  0.316E-04  0.905E-05  0.674E-05  0.674E-05  0.905E-05
  4.670  0.313E-04  0.902E-05  0.663E-05  0.663E-05  0.902E-05
  4.680  0.311E-04  0.900E-05  0.653E-05  0.653E-05  0.900E-05
  4.690  0.309E-04  0.898E-05  0.646E-05  0.646E-05  0.898E-05
  4.700  0.307E-04  0.896E-05  0.639E-05  0.639E-05  0.896E-05
  4.710  0.306E-04  0.895E-05  0.634E-05  0.634E-05  0.895E-05
  4.720  0.305E-04  0.895E-05  0.630E-05  0.630E-05  0.895E-05
  4.730  0.304E-04  0.895E-05  0.626E-05  0.626E-05  0.895E-05
  4.740  0.304E-04  0.894E-05  0.623E-05  0.623E-05  0.894E-05
  4.750  0.303E-04  0.895E-05  0.621E-05  0.621E-05  0.895E-05
  4.760  0.303E-04  0.895E-05  0.619E-05  0.619E-05  0.895E-05
  4.770  0.302E-04  0.895E-05  0.617E-05  0.617E-05  0.895E-05
  4.780  0.302E-04  0.896E-05  0.615E-05  0.615E-05  0.896E-05
  4.790  0.302E-04  0.896E-05  0.614E-05  0.614E-05  0.896E-05
  4.800  0.302E-04  0.896E-05  0.612E-05  0.612E-05  0.896E-05
  4.810  0.302E-04  0.897E-05  0.611E-05  0.611E-05  0.897E-05
  4.820  0.301E-04  0.897E-05  0.610E-05  0.610E-05  0.897E-05
  4.830  0.301E-04  0.898E-05  0.608E-05  0.608E-05  0.898E-05
  4.840  0.301E-04  0.899E-05  0.607E-05  0.607E-05  0.899E-05
  4.850  0.301E-04  0.899E-05  0.606E-05  0.606E-05  0.899E-05
  4.860  0.301E-04  0.900E-05  0.604E-05  0.604E-05  0.900E-05
  4.870  0.301E-04  0.900E-05  0.603E-05  0.603E-05  0.900E-05
  4.880  0.301E-04  0.901E-05  0.602E-05  0.602E-05  0.901E-05
  4.890  0.300E-04  0.901E-05  0.601E-05  0.601E-05  0.901E-05
  4.900  0.300E-04  0.902E-05  0.600E-05  0.600E-05  0.902E-05
  4.910  0.300E-04  0.903E-05  0.598E-05  0.598E-05  0.903E-05
  4.920  0.300E-04  0.903E-05  0.597E-05  0.597E-05  0.903E-05
  4.930  0.300E-04  0.904E-05  0.596E-05  0.596E-05  0.904E-05
  4.940  0.300E-04  0.905E-05  0.595E-05  0.595E-05  0.905E-05
  4.950  0.300E-04  0.906E-05  0.594E-05  0.594E-05  0.906E-05
  4.960  0.300E-04  0.906E-05  0.593E-05  0.593E-05  0.906E-05
  4.970  0.300E-04  0.907E-05  0.593E-05  0.593E-05  0.907E-05
  4.980  0.300E-04  0.908E-05  0.592E-05  0.592E-05  0.908E-05
  4.990  0.300E-04  0.909E-05  0.591E-05  0.591E-05  0.909E-05
  5.000  0.300E-04  0.909E-05  0.590E-05  0.590E-05  0.909E-05
  5.010  0.300E-04  0.910E-05  0.589E-05  0.589E-05  0.910E-05
  5.020  0.300E-04  0.911E-05  0.589E-05  0.589E-05  0.911E-05
  5.030  0.300E-04  0.912E-05  0.588E-05  0.588E-05  0.912E-05
  5.040  0.300E-04  0.913E-05  0.588E-05  0.588E-05  0.913E-05
  5.050  0.300E-04  0.914E-05  0.587E-05  0.587E-05  0.914E-05
  5.060  0.300E-04  0.915E-05  0.587E-05  0.587E-05  0.915E-05
  5.070  0.300E-04  0.916E-05  0.586E-05  0.586E-05  0.916E-05
  5.080  0.301E-04  0.917E-05  0.586E-05  0.586E-05  0.917E-05
  5.090  0.301E-04  0.918E-05  0.585E-05  0.585E-05  0.918E-05
  5.100  0.301E-04  0.919E-05  0.585E-05  0.585E-05  0.919E-05
  5.110  0.301E-04  0.920E-05  0.585E-05  0.585E-05  0.920E-05
  5.120  0.301E-04  0.922E-05  0.585E-05  0.585E-05  0.922E-05
  5.130  0.301E-04  0.923E-05  0.585E-05  0.585E-05  0.923E-05
  5.140  0.302E-04  0.924E-05  0.584E-05  0.584E-05  0.924E-05
  5.150  0.302E-04  0.925E-05  0.584E-05  0.584E-05  0.925E-05
  5.160  0.302E-04  0.927E-05  0.584E-05  0.584E-05  0.927E-05
  5.170  0.303E-04  0.928E-05  0.584E-05  0.584E-05  0.928E-05
  5.180  0.303E-04  0.930E-05  0.584E-05  0.584E-05  0.930E-05
  5.190  0.303E-04  0.931E-05  0.584E-05  0.584E-05  0.931E-05
  5.200  0.303E-04  0.933E-05  0.585E-05  0.585E-05  0.933E-05
  5.210  0.304E-04  0.934E-05  0.585E-05  0.585E-05  0.934E-05
  5.220  0.304E-04  0.936E-05  0.585E-05  0.585E-05  0.936E-05
  5.230  0.305E-04  0.938E-05  0.585E-05  0.585E-05  0.938E-05
  5.240  0.305E-04  0.940E-05  0.585E-05  0.585E-05  0.940E-05
  5.250  0.305E-04  0.941E-05  0.586E-05  0.586E-05  0.941E-05
  5.260  0.306E-04  0.943E-05  0.586E-05  0.586E-05  0.943E-05
  5.270  0.306E-04  0.945E-05  0.587E-05  0.587E-05  0.945E-05
  5.280  0.307E-04  0.947E-05  0.587E-05  0.587E-05  0.947E-05
  5.290  0.307E-04  0.949E-05  0.588E-05  0.588E-05  0.949E-05
  5.300  0.308E-04  0.951E-05  0.588E-05  0.588E-05  0.951E-05
  5.310  0.308E-04  0.953E-05  0.589E-05  0.589E-05  0.953E-05
  5.320  0.309E-04  0.955E-05  0.589E-05  0.589E-05  0.955E-05
  5.330  0.310E-04  0.958E-05  0.590E-05  0.590E-05  0.958E-05
  5.340  0.310E-04  0.960E-05  0.591E-05  0.591E-05  0.960E-05
  5.350  0.311E-04  0.962E-05  0.592E-05  0.592E-05  0.962E-05
  5.360  0.311E-04  0.965E-05  0.593E-05  0.593E-05  0.965E-05
  5.370  0.312E-04  0.967E-05  0.593E-05  0.593E-05  0.967E-05
  5.380  0.313E-04  0.969E-05  0.594E-05  0.594E-05  0.969E-05
  5.390  0.313E-04  0.972E-05  0.595E-05  0.595E-05  0.972E-05
  5.400  0.314E-04  0.974E-05  0.596E-05  0.596E-05  0.974E-05
  5.410  0.315E-04  0.977E-05  0.597E-05  0.597E-05  0.977E-05
  5.420  0.315E-04  0.979E-05  0.598E-05  0.598E-05  0.979E-05
  5.430  0.316E-04  0.982E-05  0.599E-05  0.599E-05  0.982E-05
  5.440  0.317E-04  0.984E-05  0.600E-05  0.600E-05  0.984E-05
  5.450  0.317E-04  0.987E-05  0.601E-05  0.601E-05  0.987E-05
  5.460  0.318E-04  0.989E-05  0.602E-05  0.602E-05  0.989E-05
  5.470  0.319E-04  0.991E-05  0.603E-05  0.603E-05  0.991E-05
  5.480  0.319E-04  0.994E-05  0.604E-05  0.604E-05  0.994E-05
  5.490  0.320E-04  0.996E-05  0.604E-05  0.604E-05  0.996E-05
  5.500  0.321E-04  0.998E-05  0.605E-05  0.605E-05  0.998E-05
  5.510  0.321E-04  0.100E-04  0.606E-05  0.606E-05  0.100E-04
  5.520  0.322E-04  0.100E-04  0.607E-05  0.607E-05  0.100E-04
  5.530  0.322E-04  0.100E-04  0.607E-05  0.607E-05  0.100E-04
  5.540  0.323E-04  0.101E-04  0.608E-05  0.608E-05  0.101E-04
  5.550  0.323E-04  0.101E-04  0.608E-05  0.608E-05  0.101E-04
  5.560  0.323E-04  0.101E-04  0.609E-05  0.609E-05  0.101E-04
  5.570  0.324E-04  0.101E-04  0.609E-05  0.609E-05  0.101E-04
  5.580  0.324E-04  0.101E-04  0.609E-05  0.609E-05  0.101E-04
  5.590  0.324E-04  0.101E-04  0.610E-05  0.610E-05  0.101E-04
  5.600  0.324E-04  0.101E-04  0.610E-05  0.610E-05  0.101E-04
  5.610  0.325E-04  0.101E-04  0.610E-05  0.610E-05  0.101E-04
  5.620  0.325E-04  0.101E-04  0.610E-05  0.610E-05  0.101E-04
  5.630  0.325E-04  0.101E-04  0.610E-05  0.610E-05  0.101E-04
  5.640  0.325E-04  0.102E-04  0.610E-05  0.610E-05  0.102E-04
  5.650  0.325E-04  0.102E-04  0.610E-05  0.610E-05  0.102E-04
  5.660  0.326E-04  0.102E-04  0.611E-05  0.611E-05  0.102E-04
  5.670  0.326E-04  0.102E-04  0.612E-05  0.612E-05  0.102E-04
  5.680  0.327E-04  0.102E-04  0.613E-05  0.613E-05  0.102E-04
  5.690  0.328E-04  0.102E-04  0.615E-05  0.615E-05  0.102E-04
  5.700  0.329E-04  0.103E-04  0.618E-05  0.618E-05  0.103E-04
  5.710  0.330E-04  0.103E-04  0.621E-05  0.621E-05  0.103E-04
  5.720  0.333E-04  0.104E-04  0.625E-05  0.625E-05  0.104E-04
  5.730  0.335E-04  0.104E-04  0.631E-05  0.631E-05  0.104E-04
  5.740  0.338E-04  0.105E-04  0.638E-05  0.638E-05  0.105E-04
  5.750  0.342E-04  0.106E-04  0.646E-05  0.646E-05  0.106E-04
  5.760  0.347E-04  0.108E-04  0.656E-05  0.656E-05  0.108E-04
  5.770  0.352E-04  0.109E-04  0.668E-05  0.668E-05  0.109E-04
  5.780  0.358E-04  0.111E-04  0.681E-05  0.681E-05  0.111E-04
  5.790  0.365E-04  0.113E-04  0.696E-05  0.696E-05  0.113E-04
  5.800  0.372E-04  0.115E-04  0.713E-05  0.713E-05  0.115E-04
  5.810  0.380E-04  0.117E-04  0.731E-05  0.731E-05  0.117E-04
  5.820  0.389E-04  0.119E-04  0.751E-05  0.751E-05  0.119E-04
  5.830  0.397E-04  0.122E-04  0.771E-05  0.771E-05  0.122E-04
  5.840  0.406E-04  0.124E-04  0.792E-05  0.792E-05  0.124E-04
  5.850  0.415E-04  0.126E-04  0.813E-05  0.813E-05  0.126E-04
  5.860  0.423E-04  0.128E-04  0.834E-05  0.834E-05  0.128E-04
  5.870  0.431E-04  0.130E-04  0.853E-05  0.853E-05  0.130E-04
  5.880  0.437E-04  0.132E-04  0.872E-05  0.872E-05  0.132E-04
  5.890  0.443E-04  0.133E-04  0.888E-05  0.888E-05  0.133E-04
  5.900  0.448E-04  0.134E-04  0.903E-05  0.903E-05  0.134E-04
  5.910  0.451E-04  0.134E-04  0.914E-05  0.914E-05  0.134E-04
  5.920  0.453E-04  0.134E-04  0.923E-05  0.923E-05  0.134E-04
  5.930  0.453E-04  0.133E-04  0.929E-05  0.929E-05  0.133E-04
  5.940  0.451E-04  0.132E-04  0.932E-05  0.932E-05  0.132E-04
  5.950  0.448E-04  0.131E-04  0.932E-05  0.932E-05  0.131E-04
  5.960  0.444E-04  0.129E-04  0.929E-05  0.929E-05  0.129E-04
  5.970  0.439E-04  0.127E-04  0.923E-05  0.923E-05  0.127E-04
  5.980  0.432E-04  0.125E-04  0.915E-05  0.915E-05  0.125E-04
  5.990  0.425E-04  0.122E-04  0.906E-05  0.906E-05  0.122E-04
  6.000  0.418E-04  0.119E-04  0.896E-05  0.896E-05  0.119E-04
  6.010  0.410E-04  0.116E-04  0.886E-05  0.886E-05  0.116E-04
  6.020  0.402E-04  0.114E-04  0.875E-05  0.875E-05  0.114E-04
  6.030  0.395E-04  0.111E-04  0.866E-05  0.866E-05  0.111E-04
  6.040  0.389E-04  0.108E-04  0.858E-05  0.858E-05  0.108E-04
  6.050  0.383E-04  0.106E-04  0.852E-05  0.852E-05  0.106E-04
  6.060  0.378E-04  0.104E-04  0.848E-05  0.848E-05  0.104E-04
  6.070  0.375E-04  0.103E-04  0.848E-05  0.848E-05  0.103E-04
  6.080  0.373E-04  0.101E-04  0.851E-05  0.851E-05  0.101E-04
  6.090  0.372E-04  0.100E-04  0.859E-05  0.859E-05  0.100E-04
  6.100  0.373E-04  0.995E-05  0.871E-05  0.871E-05  0.995E-05
  6.110  0.376E-04  0.992E-05  0.889E-05  0.889E-05  0.992E-05
  6.120  0.381E-04  0.993E-05  0.912E-05  0.912E-05  0.993E-05
  6.130  0.388E-04  0.998E-05  0.941E-05  0.941E-05  0.998E-05
  6.140  0.396E-04  0.101E-04  0.976E-05  0.976E-05  0.101E-04
  6.150  0.407E-04  0.102E-04  0.102E-04  0.102E-04  0.102E-04
  6.160  0.420E-04  0.103E-04  0.107E-04  0.107E-04  0.103E-04
  6.170  0.434E-04  0.105E-04  0.112E-04  0.112E-04  0.105E-04
  6.180  0.451E-04  0.107E-04  0.118E-04  0.118E-04  0.107E-04
  6.190  0.469E-04  0.110E-04  0.125E-04  0.125E-04  0.110E-04
  6.200  0.489E-04  0.113E-04  0.132E-04  0.132E-04  0.113E-04
  6.210  0.511E-04  0.116E-04  0.140E-04  0.140E-04  0.116E-04
  6.220  0.533E-04  0.119E-04  0.148E-04  0.148E-04  0.119E-04
  6.230  0.556E-04  0.122E-04  0.156E-04  0.156E-04  0.122E-04
  6.240  0.579E-04  0.125E-04  0.164E-04  0.164E-04  0.125E-04
  6.250  0.602E-04  0.128E-04  0.173E-04  0.173E-04  0.128E-04
  6.260  0.624E-04  0.132E-04  0.181E-04  0.181E-04  0.132E-04
  6.270  0.645E-04  0.135E-04  0.188E-04  0.188E-04  0.135E-04
  6.280  0.664E-04  0.137E-04  0.195E-04  0.195E-04  0.137E-04
  6.290  0.681E-04  0.140E-04  0.201E-04  0.201E-04  0.140E-04
  6.300  0.695E-04  0.142E-04  0.206E-04  0.206E-04  0.142E-04
  6.310  0.705E-04  0.143E-04  0.209E-04  0.209E-04  0.143E-04
  6.320  0.713E-04  0.144E-04  0.212E-04  0.212E-04  0.144E-04
  6.330  0.717E-04  0.145E-04  0.214E-04  0.214E-04  0.145E-04
  6.340  0.718E-04  0.145E-04  0.214E-04  0.214E-04  0.145E-04
  6.350  0.715E-04  0.145E-04  0.213E-04  0.213E-04  0.145E-04
  6.360  0.710E-04  0.144E-04  0.211E-04  0.211E-04  0.144E-04
  6.370  0.701E-04  0.143E-04  0.208E-04  0.208E-04  0.143E-04
  6.380  0.690E-04  0.141E-04  0.204E-04  0.204E-04  0.141E-04
  6.390  0.677E-04  0.139E-04  0.199E-04  0.199E-04  0.139E-04
  6.400  0.662E-04  0.137E-04  0.194E-04  0.194E-04  0.137E-04
  6.410  0.647E-04  0.135E-04  0.189E-04  0.189E-04  0.135E-04
  6.420  0.630E-04  0.132E-04  0.183E-04  0.183E-04  0.132E-04
  6.430  0.613E-04  0.130E-04  0.177E-04  0.177E-04  0.130E-04
  6.440  0.597E-04  0.128E-04  0.171E-04  0.171E-04  0.128E-04
  6.450  0.581E-04  0.125E-04  0.165E-04  0.165E-04  0.125E-04
  6.460  0.565E-04  0.123E-04  0.160E-04  0.160E-04  0.123E-04
  6.470  0.551E-04  0.121E-04  0.154E-04  0.154E-04  0.121E-04
  6.480  0.537E-04  0.119E-04  0.150E-04  0.150E-04  0.119E-04
  6.490  0.525E-04  0.117E-04  0.145E-04  0.145E-04  0.117E-04
  6.500  0.513E-04  0.116E-04  0.141E-04  0.141E-04  0.116E-04
  6.510  0.503E-04  0.114E-04  0.137E-04  0.137E-04  0.114E-04
  6.520  0.494E-04  0.113E-04  0.134E-04  0.134E-04  0.113E-04
  6.530  0.486E-04  0.112E-04  0.131E-04  0.131E-04  0.112E-04
  6.540  0.479E-04  0.111E-04  0.129E-04  0.129E-04  0.111E-04
  6.550  0.472E-04  0.110E-04  0.126E-04  0.126E-04  0.110E-04
  6.560  0.467E-04  0.109E-04  0.124E-04  0.124E-04  0.109E-04
  6.570  0.462E-04  0.109E-04  0.122E-04  0.122E-04  0.109E-04
  6.580  0.458E-04  0.108E-04  0.121E-04  0.121E-04  0.108E-04
  6.590  0.454E-04  0.107E-04  0.120E-04  0.120E-04  0.107E-04
  6.600  0.451E-04  0.107E-04  0.119E-04  0.119E-04  0.107E-04
  6.610  0.448E-04  0.106E-04  0.118E-04  0.118E-04  0.106E-04
  6.620  0.446E-04  0.106E-04  0.117E-04  0.117E-04  0.106E-04
  6.630  0.443E-04  0.106E-04  0.116E-04  0.116E-04  0.106E-04
  6.640  0.442E-04  0.105E-04  0.115E-04  0.115E-04  0.105E-04
  6.650  0.440E-04  0.105E-04  0.115E-04  0.115E-04  0.105E-04
  6.660  0.438E-04  0.105E-04  0.114E-04  0.114E-04  0.105E-04
  6.670  0.437E-04  0.104E-04  0.114E-04  0.114E-04  0.104E-04
  6.680  0.436E-04  0.104E-04  0.114E-04  0.114E-04  0.104E-04
  6.690  0.435E-04  0.104E-04  0.113E-04  0.113E-04  0.104E-04
  6.700  0.434E-04  0.104E-04  0.113E-04  0.113E-04  0.104E-04
  6.710  0.433E-04  0.103E-04  0.113E-04  0.113E-04  0.103E-04
  6.720  0.432E-04  0.103E-04  0.113E-04  0.113E-04  0.103E-04
  6.730  0.431E-04  0.103E-04  0.112E-04  0.112E-04  0.103E-04
  6.740  0.430E-04  0.103E-04  0.112E-04  0.112E-04  0.103E-04
  6.750  0.429E-04  0.102E-04  0.112E-04  0.112E-04  0.102E-04
  6.760  0.428E-04  0.102E-04  0.112E-04  0.112E-04  0.102E-04
  6.770  0.427E-04  0.102E-04  0.111E-04  0.111E-04  0.102E-04
  6.780  0.426E-04  0.102E-04  0.111E-04  0.111E-04  0.102E-04
  6.790  0.424E-04  0.101E-04  0.111E-04  0.111E-04  0.101E-04
  6.800  0.423E-04  0.101E-04  0.111E-04  0.111E-04  0.101E-04
  6.810  0.422E-04  0.101E-04  0.110E-04  0.110E-04  0.101E-04
  6.820  0.421E-04  0.101E-04  0.110E-04  0.110E-04  0.101E-04
  6.830  0.420E-04  0.100E-04  0.110E-04  0.110E-04  0.100E-04
  6.840  0.419E-04  0.100E-04  0.109E-04  0.109E-04  0.100E-04
  6.850  0.417E-04  0.997E-05  0.109E-04  0.109E-04  0.997E-05
  6.860  0.416E-04  0.995E-05  0.109E-04  0.109E-04  0.995E-05
  6.870  0.415E-04  0.992E-05  0.108E-04  0.108E-04  0.992E-05
  6.880  0.414E-04  0.990E-05  0.108E-04  0.108E-04  0.990E-05
  6.890  0.413E-04  0.987E-05  0.108E-04  0.108E-04  0.987E-05
  6.900  0.412E-04  0.985E-05  0.107E-04  0.107E-04  0.985E-05
  6.910  0.411E-04  0.983E-05  0.107E-04  0.107E-04  0.983E-05
  6.920  0.410E-04  0.980E-05  0.107E-04  0.107E-04  0.980E-05
  6.930  0.408E-04  0.978E-05  0.106E-04  0.106E-04  0.978E-05
  6.940  0.407E-04  0.976E-05  0.106E-04  0.106E-04  0.976E-05
  6.950  0.406E-04  0.974E-05  0.106E-04  0.106E-04  0.974E-05
  6.960  0.405E-04  0.972E-05  0.105E-04  0.105E-04  0.972E-05
  6.970  0.404E-04  0.970E-05  0.105E-04  0.105E-04  0.970E-05
  6.980  0.403E-04  0.969E-05  0.105E-04  0.105E-04  0.969E-05
  6.990  0.402E-04  0.967E-05  0.105E-04  0.105E-04  0.967E-05
  7.000  0.402E-04  0.966E-05  0.104E-04  0.104E-04  0.966E-05
  7.010  0.401E-04  0.965E-05  0.104E-04  0.104E-04  0.965E-05
  7.020  0.400E-04  0.964E-05  0.104E-04  0.104E-04  0.964E-05
  7.030  0.399E-04  0.963E-05  0.103E-04  0.103E-04  0.963E-05
  7.040  0.399E-04  0.963E-05  0.103E-04  0.103E-04  0.963E-05
  7.050  0.398E-04  0.963E-05  0.103E-04  0.103E-04  0.963E-05
  7.060  0.398E-04  0.963E-05  0.102E-04  0.102E-04  0.963E-05
  7.070  0.397E-04  0.964E-05  0.102E-04  0.102E-04  0.964E-05
  7.080  0.397E-04  0.965E-05  0.102E-04  0.102E-04  0.965E-05
  7.090  0.397E-04  0.967E-05  0.102E-04  0.102E-04  0.967E-05
  7.100  0.396E-04  0.968E-05  0.101E-04  0.101E-04  0.968E-05
  7.110  0.396E-04  0.971E-05  0.101E-04  0.101E-04  0.971E-05
  7.120  0.396E-04  0.973E-05  0.101E-04  0.101E-04  0.973E-05
  7.130  0.396E-04  0.975E-05  0.100E-04  0.100E-04  0.975E-05
  7.140  0.396E-04  0.978E-05  0.100E-04  0.100E-04  0.978E-05
  7.150  0.396E-04  0.980E-05  0.999E-05  0.999E-05  0.980E-05
  7.160  0.396E-04  0.982E-05  0.996E-05  0.996E-05  0.982E-05
  7.170  0.395E-04  0.984E-05  0.994E-05  0.994E-05  0.984E-05
  7.180  0.395E-04  0.984E-05  0.991E-05  0.991E-05  0.984E-05
  7.190  0.394E-04  0.984E-05  0.988E-05  0.988E-05  0.984E-05
  7.200  0.393E-04  0.982E-05  0.986E-05  0.986E-05  0.982E-05
  7.210  0.392E-04  0.978E-05  0.983E-05  0.983E-05  0.978E-05
  7.220  0.391E-04  0.973E-05  0.980E-05  0.980E-05  0.973E-05
  7.230  0.389E-04  0.966E-05  0.977E-05  0.977E-05  0.966E-05
  7.240  0.386E-04  0.956E-05  0.975E-05  0.975E-05  0.956E-05
  7.250  0.383E-04  0.944E-05  0.972E-05  0.972E-05  0.944E-05
  7.260  0.380E-04  0.929E-05  0.969E-05  0.969E-05  0.929E-05
  7.270  0.376E-04  0.913E-05  0.966E-05  0.966E-05  0.913E-05
  7.280  0.372E-04  0.894E-05  0.964E-05  0.964E-05  0.894E-05
  7.290  0.367E-04  0.873E-05  0.961E-05  0.961E-05  0.873E-05
  7.300  0.362E-04  0.851E-05  0.959E-05  0.959E-05  0.851E-05
  7.310  0.357E-04  0.827E-05  0.957E-05  0.957E-05  0.827E-05
  7.320  0.351E-04  0.802E-05  0.955E-05  0.955E-05  0.802E-05
  7.330  0.346E-04  0.777E-05  0.953E-05  0.953E-05  0.777E-05
  7.340  0.340E-04  0.752E-05  0.951E-05  0.951E-05  0.752E-05
  7.350  0.335E-04  0.727E-05  0.949E-05  0.949E-05  0.727E-05
  7.360  0.330E-04  0.702E-05  0.947E-05  0.947E-05  0.702E-05
  7.370  0.325E-04  0.679E-05  0.946E-05  0.946E-05  0.679E-05
  7.380  0.320E-04  0.657E-05  0.944E-05  0.944E-05  0.657E-05
  7.390  0.316E-04  0.637E-05  0.943E-05  0.943E-05  0.637E-05
  7.400  0.312E-04  0.617E-05  0.941E-05  0.941E-05  0.617E-05
  7.410  0.308E-04  0.600E-05  0.939E-05  0.939E-05  0.600E-05
  7.420  0.304E-04  0.583E-05  0.937E-05  0.937E-05  0.583E-05
  7.430  0.301E-04  0.568E-05  0.935E-05  0.935E-05  0.568E-05
  7.440  0.297E-04  0.554E-05  0.932E-05  0.932E-05  0.554E-05
  7.450  0.294E-04  0.541E-05  0.928E-05  0.928E-05  0.541E-05
  7.460  0.290E-04  0.528E-05  0.924E-05  0.924E-05  0.528E-05
  7.470  0.287E-04  0.515E-05  0.919E-05  0.919E-05  0.515E-05
  7.480  0.283E-04  0.502E-05  0.914E-05  0.914E-05  0.502E-05
  7.490  0.279E-04  0.489E-05  0.908E-05  0.908E-05  0.489E-05
  7.500  0.275E-04  0.476E-05  0.901E-05  0.901E-05  0.476E-05
  7.510  0.271E-04  0.462E-05  0.893E-05  0.893E-05  0.462E-05
  7.520  0.267E-04  0.448E-05  0.885E-05  0.885E-05  0.448E-05
  7.530  0.262E-04  0.433E-05  0.876E-05  0.876E-05  0.433E-05
  7.540  0.257E-04  0.418E-05  0.867E-05  0.867E-05  0.418E-05
  7.550  0.252E-04  0.403E-05  0.858E-05  0.858E-05  0.403E-05
  7.560  0.247E-04  0.388E-05  0.848E-05  0.848E-05  0.388E-05
  7.570  0.242E-04  0.373E-05  0.839E-05  0.839E-05  0.373E-05
  7.580  0.238E-04  0.358E-05  0.830E-05  0.830E-05  0.358E-05
  7.590  0.233E-04  0.344E-05  0.822E-05  0.822E-05  0.344E-05
  7.600  0.229E-04  0.331E-05  0.815E-05  0.815E-05  0.331E-05
  7.610  0.225E-04  0.319E-05  0.808E-05  0.808E-05  0.319E-05
  7.620  0.222E-04  0.309E-05  0.803E-05  0.803E-05  0.309E-05
  7.630  0.220E-04  0.299E-05  0.798E-05  0.798E-05  0.299E-05
  7.640  0.217E-04  0.292E-05  0.795E-05  0.795E-05  0.292E-05
  7.650  0.216E-04  0.285E-05  0.793E-05  0.793E-05  0.285E-05
  7.660  0.215E-04  0.281E-05  0.792E-05  0.792E-05  0.281E-05
  7.670  0.214E-04  0.277E-05  0.792E-05  0.792E-05  0.277E-05
  7.680  0.214E-04  0.275E-05  0.793E-05  0.793E-05  0.275E-05
  7.690  0.214E-04  0.274E-05  0.794E-05  0.794E-05  0.274E-05
  7.700  0.214E-04  0.274E-05  0.797E-05  0.797E-05  0.274E-05
  7.710  0.215E-04  0.275E-05  0.799E-05  0.799E-05  0.275E-05
  7.720  0.216E-04  0.277E-05  0.801E-05  0.801E-05  0.277E-05
  7.730  0.216E-04  0.279E-05  0.803E-05  0.803E-05  0.279E-05
  7.740  0.217E-04  0.281E-05  0.805E-05  0.805E-05  0.281E-05
  7.750  0.218E-04  0.283E-05  0.806E-05  0.806E-05  0.283E-05
  7.760  0.218E-04  0.285E-05  0.806E-05  0.806E-05  0.285E-05
  7.770  0.218E-04  0.287E-05  0.805E-05  0.805E-05  0.287E-05
  7.780  0.218E-04  0.289E-05  0.803E-05  0.803E-05  0.289E-05
  7.790  0.218E-04  0.290E-05  0.799E-05  0.799E-05  0.290E-05
  7.800  0.217E-04  0.291E-05  0.794E-05  0.794E-05  0.291E-05
  7.810  0.216E-04  0.292E-05  0.788E-05  0.788E-05  0.292E-05
  7.820  0.215E-04  0.292E-05  0.781E-05  0.781E-05  0.292E-05
  7.830  0.213E-04  0.292E-05  0.772E-05  0.772E-05  0.292E-05
  7.840  0.211E-04  0.292E-05  0.763E-05  0.763E-05  0.292E-05
  7.850  0.209E-04  0.291E-05  0.754E-05  0.754E-05  0.291E-05
  7.860  0.207E-04  0.290E-05  0.744E-05  0.744E-05  0.290E-05
  7.870  0.205E-04  0.289E-05  0.735E-05  0.735E-05  0.289E-05
  7.880  0.203E-04  0.288E-05  0.726E-05  0.726E-05  0.288E-05
  7.890  0.201E-04  0.287E-05  0.718E-05  0.718E-05  0.287E-05
  7.900  0.200E-04  0.286E-05  0.712E-05  0.712E-05  0.286E-05
  7.910  0.199E-04  0.286E-05  0.707E-05  0.707E-05  0.286E-05
  7.920  0.198E-04  0.286E-05  0.705E-05  0.705E-05  0.286E-05
  7.930  0.198E-04  0.287E-05  0.704E-05  0.704E-05  0.287E-05
  7.940  0.199E-04  0.289E-05  0.707E-05  0.707E-05  0.289E-05
  7.950  0.200E-04  0.291E-05  0.711E-05  0.711E-05  0.291E-05
  7.960  0.203E-04  0.294E-05  0.719E-05  0.719E-05  0.294E-05
  7.970  0.206E-04  0.299E-05  0.729E-05  0.729E-05  0.299E-05
  7.980  0.209E-04  0.304E-05  0.742E-05  0.742E-05  0.304E-05
  7.990  0.214E-04  0.311E-05  0.756E-05  0.756E-05  0.311E-05
  8.000  0.219E-04  0.319E-05  0.773E-05  0.773E-05  0.319E-05
  8.010  0.224E-04  0.329E-05  0.791E-05  0.791E-05  0.329E-05
  8.020  0.230E-04  0.341E-05  0.811E-05  0.811E-05  0.341E-05
  8.030  0.237E-04  0.355E-05  0.831E-05  0.831E-05  0.355E-05
  8.040  0.244E-04  0.370E-05  0.851E-05  0.851E-05  0.370E-05
  8.050  0.252E-04  0.388E-05  0.870E-05  0.870E-05  0.388E-05
  8.060  0.259E-04  0.409E-05  0.888E-05  0.888E-05  0.409E-05
  8.070  0.267E-04  0.432E-05  0.905E-05  0.905E-05  0.432E-05
  8.080  0.275E-04  0.458E-05  0.918E-05  0.918E-05  0.458E-05
  8.090  0.283E-04  0.488E-05  0.929E-05  0.929E-05  0.488E-05
  8.100  0.291E-04  0.520E-05  0.936E-05  0.936E-05  0.520E-05
  8.110  0.299E-04  0.556E-05  0.940E-05  0.940E-05  0.556E-05
  8.120  0.307E-04  0.595E-05  0.939E-05  0.939E-05  0.595E-05
  8.130  0.314E-04  0.637E-05  0.934E-05  0.934E-05  0.637E-05
  8.140  0.321E-04  0.681E-05  0.925E-05  0.925E-05  0.681E-05
  8.150  0.328E-04  0.728E-05  0.913E-05  0.913E-05  0.728E-05
  8.160  0.335E-04  0.776E-05  0.897E-05  0.897E-05  0.776E-05
  8.170  0.341E-04  0.825E-05  0.878E-05  0.878E-05  0.825E-05
  8.180  0.346E-04  0.874E-05  0.856E-05  0.856E-05  0.874E-05
  8.190  0.351E-04  0.922E-05  0.832E-05  0.832E-05  0.922E-05
  8.200  0.355E-04  0.968E-05  0.807E-05  0.807E-05  0.968E-05
  8.210  0.359E-04  0.101E-04  0.782E-05  0.782E-05  0.101E-04
  8.220  0.361E-04  0.105E-04  0.756E-05  0.756E-05  0.105E-04
  8.230  0.363E-04  0.108E-04  0.731E-05  0.731E-05  0.108E-04
  8.240  0.363E-04  0.111E-04  0.706E-05  0.706E-05  0.111E-04
  8.250  0.362E-04  0.113E-04  0.683E-05  0.683E-05  0.113E-04
  8.260  0.360E-04  0.114E-04  0.661E-05  0.661E-05  0.114E-04
  8.270  0.357E-04  0.114E-04  0.640E-05  0.640E-05  0.114E-04
  8.280  0.352E-04  0.114E-04  0.622E-05  0.622E-05  0.114E-04
  8.290  0.346E-04  0.113E-04  0.604E-05  0.604E-05  0.113E-04
  8.300  0.339E-04  0.111E-04  0.589E-05  0.589E-05  0.111E-04
  8.310  0.331E-04  0.108E-04  0.575E-05  0.575E-05  0.108E-04
  8.320  0.323E-04  0.105E-04  0.563E-05  0.563E-05  0.105E-04
  8.330  0.313E-04  0.102E-04  0.551E-05  0.551E-05  0.102E-04
  8.340  0.304E-04  0.976E-05  0.541E-05  0.541E-05  0.976E-05
  8.350  0.294E-04  0.935E-05  0.533E-05  0.533E-05  0.935E-05
  8.360  0.284E-04  0.893E-05  0.525E-05  0.525E-05  0.893E-05
  8.370  0.274E-04  0.851E-05  0.518E-05  0.518E-05  0.851E-05
  8.380  0.265E-04  0.810E-05  0.513E-05  0.513E-05  0.810E-05
  8.390  0.256E-04  0.771E-05  0.508E-05  0.508E-05  0.771E-05
  8.400  0.248E-04  0.735E-05  0.505E-05  0.505E-05  0.735E-05
  8.410  0.241E-04  0.702E-05  0.503E-05  0.503E-05  0.702E-05
  8.420  0.235E-04  0.672E-05  0.502E-05  0.502E-05  0.672E-05
  8.430  0.230E-04  0.646E-05  0.503E-05  0.503E-05  0.646E-05
  8.440  0.226E-04  0.624E-05  0.506E-05  0.506E-05  0.624E-05
  8.450  0.223E-04  0.606E-05  0.510E-05  0.510E-05  0.606E-05
  8.460  0.222E-04  0.591E-05  0.517E-05  0.517E-05  0.591E-05
  8.470  0.221E-04  0.579E-05  0.526E-05  0.526E-05  0.579E-05
  8.480  0.222E-04  0.570E-05  0.537E-05  0.537E-05  0.570E-05
  8.490  0.223E-04  0.565E-05  0.551E-05  0.551E-05  0.565E-05
  8.500  0.226E-04  0.561E-05  0.568E-05  0.568E-05  0.561E-05
  8.510  0.230E-04  0.561E-05  0.588E-05  0.588E-05  0.561E-05
  8.520  0.234E-04  0.562E-05  0.610E-05  0.610E-05  0.562E-05
  8.530  0.240E-04  0.565E-05  0.635E-05  0.635E-05  0.565E-05
  8.540  0.246E-04  0.570E-05  0.662E-05  0.662E-05  0.570E-05
  8.550  0.253E-04  0.575E-05  0.692E-05  0.692E-05  0.575E-05
  8.560  0.261E-04  0.582E-05  0.723E-05  0.723E-05  0.582E-05
  8.570  0.269E-04  0.590E-05  0.755E-05  0.755E-05  0.590E-05
  8.580  0.277E-04  0.599E-05  0.788E-05  0.788E-05  0.599E-05
  8.590  0.286E-04  0.608E-05  0.820E-05  0.820E-05  0.608E-05
  8.600  0.294E-04  0.617E-05  0.851E-05  0.851E-05  0.617E-05
  8.610  0.301E-04  0.626E-05  0.880E-05  0.880E-05  0.626E-05
  8.620  0.308E-04  0.635E-05  0.906E-05  0.906E-05  0.635E-05
  8.630  0.314E-04  0.644E-05  0.927E-05  0.927E-05  0.644E-05
  8.640  0.319E-04  0.652E-05  0.943E-05  0.943E-05  0.652E-05
  8.650  0.323E-04  0.660E-05  0.953E-05  0.953E-05  0.660E-05
  8.660  0.325E-04  0.667E-05  0.957E-05  0.957E-05  0.667E-05
  8.670  0.325E-04  0.673E-05  0.953E-05  0.953E-05  0.673E-05
  8.680  0.324E-04  0.679E-05  0.943E-05  0.943E-05  0.679E-05
  8.690  0.322E-04  0.684E-05  0.926E-05  0.926E-05  0.684E-05
  8.700  0.318E-04  0.689E-05  0.901E-05  0.901E-05  0.689E-05
  8.710  0.313E-04  0.693E-05  0.870E-05  0.870E-05  0.693E-05
  8.720  0.306E-04  0.696E-05  0.834E-05  0.834E-05  0.696E-05
  8.730  0.298E-04  0.698E-05  0.793E-05  0.793E-05  0.698E-05
  8.740  0.290E-04  0.700E-05  0.748E-05  0.748E-05  0.700E-05
  8.750  0.280E-04  0.701E-05  0.701E-05  0.701E-05  0.701E-05
  8.760  0.271E-04  0.702E-05  0.652E-05  0.652E-05  0.702E-05
  8.770  0.261E-04  0.701E-05  0.603E-05  0.603E-05  0.701E-05
  8.780  0.251E-04  0.698E-05  0.556E-05  0.556E-05  0.698E-05
  8.790  0.241E-04  0.694E-05  0.510E-05  0.510E-05  0.694E-05
  8.800  0.231E-04  0.688E-05  0.467E-05  0.467E-05  0.688E-05
  8.810  0.222E-04  0.680E-05  0.428E-05  0.428E-05  0.680E-05
  8.820  0.212E-04  0.669E-05  0.393E-05  0.393E-05  0.669E-05
  8.830  0.204E-04  0.656E-05  0.362E-05  0.362E-05  0.656E-05
  8.840  0.195E-04  0.641E-05  0.336E-05  0.336E-05  0.641E-05
  8.850  0.187E-04  0.623E-05  0.314E-05  0.314E-05  0.623E-05
  8.860  0.180E-04  0.603E-05  0.296E-05  0.296E-05  0.603E-05
  8.870  0.173E-04  0.580E-05  0.283E-05  0.283E-05  0.580E-05
  8.880  0.166E-04  0.556E-05  0.274E-05  0.274E-05  0.556E-05
  8.890  0.160E-04  0.531E-05  0.267E-05  0.267E-05  0.531E-05
  8.900  0.154E-04  0.505E-05  0.264E-05  0.264E-05  0.505E-05
  8.910  0.149E-04  0.479E-05  0.264E-05  0.264E-05  0.479E-05
  8.920  0.144E-04  0.454E-05  0.265E-05  0.265E-05  0.454E-05
  8.930  0.139E-04  0.429E-05  0.268E-05  0.268E-05  0.429E-05
  8.940  0.136E-04  0.406E-05  0.273E-05  0.273E-05  0.406E-05
  8.950  0.133E-04  0.385E-05  0.278E-05  0.278E-05  0.385E-05
  8.960  0.130E-04  0.366E-05  0.284E-05  0.284E-05  0.366E-05
  8.970  0.128E-04  0.349E-05  0.291E-05  0.291E-05  0.349E-05
  8.980  0.127E-04  0.335E-05  0.299E-05  0.299E-05  0.335E-05
  8.990  0.126E-04  0.323E-05  0.306E-05  0.306E-05  0.323E-05
  9.000  0.125E-04  0.313E-05  0.314E-05  0.314E-05  0.313E-05
  9.010  0.125E-04  0.305E-05  0.321E-05  0.321E-05  0.305E-05
  9.020  0.125E-04  0.299E-05  0.328E-05  0.328E-05  0.299E-05
  9.030  0.125E-04  0.293E-05  0.334E-05  0.334E-05  0.293E-05
  9.040  0.126E-04  0.289E-05  0.339E-05  0.339E-05  0.289E-05
  9.050  0.125E-04  0.284E-05  0.343E-05  0.343E-05  0.284E-05
  9.060  0.125E-04  0.279E-05  0.345E-05  0.345E-05  0.279E-05
  9.070  0.124E-04  0.274E-05  0.345E-05  0.345E-05  0.274E-05
  9.080  0.122E-04  0.268E-05  0.343E-05  0.343E-05  0.268E-05
  9.090  0.120E-04  0.260E-05  0.339E-05  0.339E-05  0.260E-05
  9.100  0.117E-04  0.251E-05  0.332E-05  0.332E-05  0.251E-05
  9.110  0.112E-04  0.240E-05  0.322E-05  0.322E-05  0.240E-05
  9.120  0.107E-04  0.227E-05  0.310E-05  0.310E-05  0.227E-05
  9.130  0.101E-04  0.213E-05  0.295E-05  0.295E-05  0.213E-05
  9.140  0.948E-05  0.197E-05  0.277E-05  0.277E-05  0.197E-05
  9.150  0.873E-05  0.180E-05  0.257E-05  0.257E-05  0.180E-05
  9.160  0.792E-05  0.161E-05  0.235E-05  0.235E-05  0.161E-05
  9.170  0.706E-05  0.142E-05  0.211E-05  0.211E-05  0.142E-05
  9.180  0.617E-05  0.122E-05  0.186E-05  0.186E-05  0.122E-05
  9.190  0.527E-05  0.103E-05  0.160E-05  0.160E-05  0.103E-05
  9.200  0.437E-05  0.835E-06  0.135E-05  0.135E-05  0.835E-06
  9.210  0.350E-05  0.650E-06  0.110E-05  0.110E-05  0.650E-06
  9.220  0.267E-05  0.475E-06  0.858E-06  0.858E-06  0.475E-06
  9.230  0.189E-05  0.315E-06  0.632E-06  0.632E-06  0.315E-06
  9.240  0.119E-05  0.170E-06  0.424E-06  0.424E-06  0.170E-06
  9.250  0.566E-06  0.443E-07  0.239E-06  0.239E-06  0.443E-07
  9.260  0.279E-07 -0.627E-07  0.767E-07  0.767E-07 -0.627E-07
  9.270 -0.421E-06 -0.150E-06 -0.600E-07 -0.600E-07 -0.150E-06
  9.280 -0.780E-06 -0.219E-06 -0.171E-06 -0.171E-06 -0.219E-06
  9.290 -0.105E-05 -0.269E-06 -0.258E-06 -0.258E-06 -0.269E-06
  9.300 -0.125E-05 -0.303E-06 -0.320E-06 -0.320E-06 -0.303E-06
  9.310 -0.137E-05 -0.321E-06 -0.362E-06 -0.362E-06 -0.321E-06
  9.320 -0.142E-05 -0.327E-06 -0.384E-06 -0.384E-06 -0.327E-06
  9.330 -0.142E-05 -0.321E-06 -0.390E-06 -0.390E-06 -0.321E-06
  9.340 -0.138E-05 -0.308E-06 -0.382E-06 -0.382E-06 -0.308E-06
  9.350 -0.130E-05 -0.287E-06 -0.363E-06 -0.363E-06 -0.287E-06
  9.360 -0.120E-05 -0.262E-06 -0.337E-06 -0.337E-06 -0.262E-06
  9.370 -0.108E-05 -0.234E-06 -0.304E-06 -0.304E-06 -0.234E-06
  9.380 -0.943E-06 -0.204E-06 -0.268E-06 -0.268E-06 -0.204E-06
  9.390 -0.803E-06 -0.173E-06 -0.228E-06 -0.228E-06 -0.173E-06
  9.400 -0.659E-06 -0.142E-06 -0.188E-06 -0.188E-06 -0.142E-06
  9.410 -0.514E-06 -0.111E-06 -0.146E-06 -0.146E-06 -0.111E-06
  9.420 -0.366E-06 -0.795E-07 -0.103E-06 -0.103E-06 -0.795E-07
  9.430 -0.213E-06 -0.476E-07 -0.590E-07 -0.590E-07 -0.476E-07
  9.440 -0.522E-07 -0.140E-07 -0.121E-07 -0.121E-07 -0.140E-07
  9.450  0.122E-06  0.225E-07  0.387E-07  0.387E-07  0.225E-07
  9.460  0.318E-06  0.635E-07  0.953E-07  0.953E-07  0.635E-07
  9.470  0.542E-06  0.111E-06  0.160E-06  0.160E-06  0.111E-06
  9.480  0.804E-06  0.168E-06  0.234E-06  0.234E-06  0.168E-06
  9.490  0.112E-05  0.236E-06  0.322E-06  0.322E-06  0.236E-06
  9.500  0.149E-05  0.319E-06  0.426E-06  0.426E-06  0.319E-06
  9.510  0.194E-05  0.421E-06  0.550E-06  0.550E-06  0.421E-06
  9.520  0.248E-05  0.546E-06  0.696E-06  0.696E-06  0.546E-06
  9.530  0.313E-05  0.699E-06  0.868E-06  0.868E-06  0.699E-06
  9.540  0.391E-05  0.883E-06  0.107E-05  0.107E-05  0.883E-06
  9.550  0.483E-05  0.111E-05  0.131E-05  0.131E-05  0.111E-05
  9.560  0.591E-05  0.137E-05  0.158E-05  0.158E-05  0.137E-05
  9.570  0.718E-05  0.169E-05  0.190E-05  0.190E-05  0.169E-05
  9.580  0.865E-05  0.206E-05  0.226E-05  0.226E-05  0.206E-05
  9.590  0.104E-04  0.250E-05  0.268E-05  0.268E-05  0.250E-05
  9.600  0.123E-04  0.300E-05  0.315E-05  0.315E-05  0.300E-05
  9.610  0.146E-04  0.359E-05  0.369E-05  0.369E-05  0.359E-05
  9.620  0.171E-04  0.425E-05  0.430E-05  0.430E-05  0.425E-05
  9.630  0.200E-04  0.501E-05  0.500E-05  0.500E-05  0.501E-05
  9.640  0.233E-04  0.586E-05  0.578E-05  0.578E-05  0.586E-05
  9.650  0.270E-04  0.682E-05  0.668E-05  0.668E-05  0.682E-05
  9.660  0.312E-04  0.788E-05  0.771E-05  0.771E-05  0.788E-05
  9.670  0.358E-04  0.905E-05  0.888E-05  0.888E-05  0.905E-05
  9.680  0.411E-04  0.103E-04  0.102E-04  0.102E-04  0.103E-04
  9.690  0.469E-04  0.117E-04  0.117E-04  0.117E-04  0.117E-04
  9.700  0.534E-04  0.132E-04  0.135E-04  0.135E-04  0.132E-04
  9.710  0.606E-04  0.148E-04  0.155E-04  0.155E-04  0.148E-04
  9.720  0.685E-04  0.165E-04  0.178E-04  0.178E-04  0.165E-04
  9.730  0.772E-04  0.183E-04  0.203E-04  0.203E-04  0.183E-04
  9.740  0.867E-04  0.201E-04  0.232E-04  0.232E-04  0.201E-04
  9.750  0.971E-04  0.221E-04  0.265E-04  0.265E-04  0.221E-04
  9.760  0.108E-03  0.240E-04  0.301E-04  0.301E-04  0.240E-04
  9.770  0.120E-03  0.260E-04  0.340E-04  0.340E-04  0.260E-04
  9.780  0.133E-03  0.280E-04  0.384E-04  0.384E-04  0.280E-04
  9.790  0.146E-03  0.300E-04  0.430E-04  0.430E-04  0.300E-04
  9.800  0.160E-03  0.319E-04  0.480E-04  0.480E-04  0.319E-04
  9.810  0.174E-03  0.338E-04  0.533E-04  0.533E-04  0.338E-04
  9.820  0.189E-03  0.355E-04  0.588E-04  0.588E-04  0.355E-04
  9.830  0.203E-03  0.372E-04  0.645E-04  0.645E-04  0.372E-04
  9.840  0.218E-03  0.388E-04  0.702E-04  0.702E-04  0.388E-04
  9.850  0.232E-03  0.402E-04  0.759E-04  0.759E-04  0.402E-04
  9.860  0.246E-03  0.414E-04  0.815E-04  0.815E-04  0.414E-04
  9.870  0.259E-03  0.425E-04  0.869E-04  0.869E-04  0.425E-04
  9.880  0.271E-03  0.435E-04  0.920E-04  0.920E-04  0.435E-04
  9.890  0.282E-03  0.442E-04  0.966E-04  0.966E-04  0.442E-04
  9.900  0.291E-03  0.448E-04  0.101E-03  0.101E-03  0.448E-04
  9.910  0.299E-03  0.452E-04  0.104E-03  0.104E-03  0.452E-04
  9.920  0.305E-03  0.455E-04  0.107E-03  0.107E-03  0.455E-04
  9.930  0.309E-03  0.455E-04  0.109E-03  0.109E-03  0.455E-04
  9.940  0.312E-03  0.455E-04  0.110E-03  0.110E-03  0.455E-04
  9.950  0.312E-03  0.453E-04  0.111E-03  0.111E-03  0.453E-04
  9.960  0.311E-03  0.449E-04  0.110E-03  0.110E-03  0.449E-04
  9.970  0.308E-03  0.445E-04  0.109E-03  0.109E-03  0.445E-04
  9.980  0.303E-03  0.439E-04  0.107E-03  0.107E-03  0.439E-04
  9.990  0.296E-03  0.433E-04  0.105E-03  0.105E-03  0.433E-04
 10.000  0.288E-03  0.425E-04  0.101E-03  0.101E-03  0.425E-04
 10.010  0.279E-03  0.417E-04  0.976E-04  0.976E-04  0.417E-04
 10.020  0.269E-03  0.409E-04  0.934E-04  0.934E-04  0.409E-04
 10.030  0.258E-03  0.400E-04  0.889E-04  0.889E-04  0.400E-04
 10.040  0.246E-03  0.390E-04  0.842E-04  0.842E-04  0.390E-04
 10.050  0.235E-03  0.381E-04  0.795E-04  0.795E-04  0.381E-04
 10.060  0.224E-03  0.371E-04  0.748E-04  0.748E-04  0.371E-04
 10.070  0.213E-03  0.362E-04  0.702E-04  0.702E-04  0.362E-04
 10.080  0.202E-03  0.352E-04  0.659E-04  0.659E-04  0.352E-04
 10.090  0.193E-03  0.343E-04  0.619E-04  0.619E-04  0.343E-04
 10.100  0.184E-03  0.334E-04  0.583E-04  0.583E-04  0.334E-04
 10.110  0.175E-03  0.326E-04  0.551E-04  0.551E-04  0.326E-04
 10.120  0.168E-03  0.318E-04  0.524E-04  0.524E-04  0.318E-04
 10.130  0.162E-03  0.310E-04  0.501E-04  0.501E-04  0.310E-04
 10.140  0.157E-03  0.303E-04  0.482E-04  0.482E-04  0.303E-04
 10.150  0.153E-03  0.296E-04  0.467E-04  0.467E-04  0.296E-04
 10.160  0.149E-03  0.290E-04  0.457E-04  0.457E-04  0.290E-04
 10.170  0.147E-03  0.284E-04  0.450E-04  0.450E-04  0.284E-04
 10.180  0.145E-03  0.279E-04  0.446E-04  0.446E-04  0.279E-04
 10.190  0.144E-03  0.274E-04  0.445E-04  0.445E-04  0.274E-04
 10.200  0.143E-03  0.270E-04  0.446E-04  0.446E-04  0.270E-04
 10.210  0.143E-03  0.267E-04  0.449E-04  0.449E-04  0.267E-04
 10.220  0.144E-03  0.264E-04  0.454E-04  0.454E-04  0.264E-04
 10.230  0.144E-03  0.262E-04  0.461E-04  0.461E-04  0.262E-04
 10.240  0.146E-03  0.260E-04  0.468E-04  0.468E-04  0.260E-04
 10.250  0.147E-03  0.259E-04  0.476E-04  0.476E-04  0.259E-04
 10.260  0.148E-03  0.258E-04  0.484E-04  0.484E-04  0.258E-04
 10.270  0.150E-03  0.258E-04  0.492E-04  0.492E-04  0.258E-04
 10.280  0.152E-03  0.259E-04  0.500E-04  0.500E-04  0.259E-04
 10.290  0.153E-03  0.260E-04  0.507E-04  0.507E-04  0.260E-04
 10.300  0.155E-03  0.261E-04  0.513E-04  0.513E-04  0.261E-04
 10.310  0.156E-03  0.262E-04  0.519E-04  0.519E-04  0.262E-04
 10.320  0.157E-03  0.262E-04  0.522E-04  0.522E-04  0.262E-04
 10.330  0.157E-03  0.263E-04  0.524E-04  0.524E-04  0.263E-04
 10.340  0.157E-03  0.263E-04  0.523E-04  0.523E-04  0.263E-04
 10.350  0.157E-03  0.263E-04  0.520E-04  0.520E-04  0.263E-04
 10.360  0.155E-03  0.262E-04  0.514E-04  0.514E-04  0.262E-04
 10.370  0.153E-03  0.260E-04  0.505E-04  0.505E-04  0.260E-04
 10.380  0.150E-03  0.258E-04  0.492E-04  0.492E-04  0.258E-04
 10.390  0.146E-03  0.254E-04  0.477E-04  0.477E-04  0.254E-04
 10.400  0.142E-03  0.250E-04  0.458E-04  0.458E-04  0.250E-04
 10.410  0.136E-03  0.244E-04  0.437E-04  0.437E-04  0.244E-04
 10.420  0.130E-03  0.237E-04  0.412E-04  0.412E-04  0.237E-04
 10.430  0.123E-03  0.230E-04  0.386E-04  0.386E-04  0.230E-04
 10.440  0.116E-03  0.222E-04  0.357E-04  0.357E-04  0.222E-04
 10.450  0.108E-03  0.213E-04  0.328E-04  0.328E-04  0.213E-04
 10.460  0.100E-03  0.204E-04  0.298E-04  0.298E-04  0.204E-04
 10.470  0.923E-04  0.194E-04  0.268E-04  0.268E-04  0.194E-04
 10.480  0.845E-04  0.184E-04  0.238E-04  0.238E-04  0.184E-04
 10.490  0.769E-04  0.175E-04  0.210E-04  0.210E-04  0.175E-04
 10.500  0.698E-04  0.166E-04  0.183E-04  0.183E-04  0.166E-04
 10.510  0.631E-04  0.157E-04  0.159E-04  0.159E-04  0.157E-04
 10.520  0.571E-04  0.149E-04  0.137E-04  0.137E-04  0.149E-04
 10.530  0.519E-04  0.141E-04  0.118E-04  0.118E-04  0.141E-04
 10.540  0.473E-04  0.134E-04  0.102E-04  0.102E-04  0.134E-04
 10.550  0.435E-04  0.128E-04  0.891E-05  0.891E-05  0.128E-04
 10.560  0.404E-04  0.123E-04  0.788E-05  0.788E-05  0.123E-04
 10.570  0.381E-04  0.119E-04  0.713E-05  0.713E-05  0.119E-04
 10.580  0.364E-04  0.116E-04  0.661E-05  0.661E-05  0.116E-04
 10.590  0.352E-04  0.113E-04  0.632E-05  0.632E-05  0.113E-04
 10.600  0.346E-04  0.111E-04  0.620E-05  0.620E-05  0.111E-04
 10.610  0.344E-04  0.109E-04  0.624E-05  0.624E-05  0.109E-04
 10.620  0.345E-04  0.108E-04  0.639E-05  0.639E-05  0.108E-04
 10.630  0.348E-04  0.108E-04  0.663E-05  0.663E-05  0.108E-04
 10.640  0.353E-04  0.107E-04  0.692E-05  0.692E-05  0.107E-04
 10.650  0.359E-04  0.107E-04  0.724E-05  0.724E-05  0.107E-04
 10.660  0.366E-04  0.107E-04  0.757E-05  0.757E-05  0.107E-04
 10.670  0.372E-04  0.107E-04  0.790E-05  0.790E-05  0.107E-04
 10.680  0.379E-04  0.107E-04  0.820E-05  0.820E-05  0.107E-04
 10.690  0.385E-04  0.107E-04  0.848E-05  0.848E-05  0.107E-04
 10.700  0.390E-04  0.108E-04  0.873E-05  0.873E-05  0.108E-04
 10.710  0.394E-04  0.108E-04  0.894E-05  0.894E-05  0.108E-04
 10.720  0.397E-04  0.108E-04  0.912E-05  0.912E-05  0.108E-04
 10.730  0.400E-04  0.107E-04  0.926E-05  0.926E-05  0.107E-04
 10.740  0.402E-04  0.107E-04  0.937E-05  0.937E-05  0.107E-04
 10.750  0.403E-04  0.107E-04  0.945E-05  0.945E-05  0.107E-04
 10.760  0.404E-04  0.107E-04  0.951E-05  0.951E-05  0.107E-04
 10.770  0.404E-04  0.106E-04  0.955E-05  0.955E-05  0.106E-04
 10.780  0.404E-04  0.106E-04  0.957E-05  0.957E-05  0.106E-04
 10.790  0.403E-04  0.106E-04  0.957E-05  0.957E-05  0.106E-04
 10.800  0.402E-04  0.105E-04  0.957E-05  0.957E-05  0.105E-04
 10.810  0.401E-04  0.105E-04  0.955E-05  0.955E-05  0.105E-04
 10.820  0.399E-04  0.104E-04  0.953E-05  0.953E-05  0.104E-04
 10.830  0.398E-04  0.104E-04  0.950E-05  0.950E-05  0.104E-04
 10.840  0.396E-04  0.103E-04  0.947E-05  0.947E-05  0.103E-04
 10.850  0.394E-04  0.103E-04  0.944E-05  0.944E-05  0.103E-04
 10.860  0.393E-04  0.102E-04  0.940E-05  0.940E-05  0.102E-04
 10.870  0.391E-04  0.102E-04  0.937E-05  0.937E-05  0.102E-04
 10.880  0.389E-04  0.101E-04  0.933E-05  0.933E-05  0.101E-04
 10.890  0.387E-04  0.101E-04  0.929E-05  0.929E-05  0.101E-04
 10.900  0.386E-04  0.100E-04  0.925E-05  0.925E-05  0.100E-04
 10.910  0.384E-04  0.998E-05  0.921E-05  0.921E-05  0.998E-05
 10.920  0.382E-04  0.993E-05  0.918E-05  0.918E-05  0.993E-05
 10.930  0.380E-04  0.988E-05  0.914E-05  0.914E-05  0.988E-05
 10.940  0.379E-04  0.983E-05  0.910E-05  0.910E-05  0.983E-05
 10.950  0.377E-04  0.979E-05  0.907E-05  0.907E-05  0.979E-05
 10.960  0.375E-04  0.974E-05  0.903E-05  0.903E-05  0.974E-05
 10.970  0.374E-04  0.970E-05  0.899E-05  0.899E-05  0.970E-05
 10.980  0.372E-04  0.965E-05  0.896E-05  0.896E-05  0.965E-05
 10.990  0.371E-04  0.961E-05  0.892E-05  0.892E-05  0.961E-05
 11.000  0.369E-04  0.957E-05  0.889E-05  0.889E-05  0.957E-05
 11.010  0.367E-04  0.952E-05  0.885E-05  0.885E-05  0.952E-05
 11.020  0.366E-04  0.948E-05  0.882E-05  0.882E-05  0.948E-05
 11.030  0.364E-04  0.943E-05  0.878E-05  0.878E-05  0.943E-05
 11.040  0.363E-04  0.939E-05  0.875E-05  0.875E-05  0.939E-05
 11.050  0.361E-04  0.935E-05  0.872E-05  0.872E-05  0.935E-05
 11.060  0.360E-04  0.931E-05  0.868E-05  0.868E-05  0.931E-05
 11.070  0.358E-04  0.927E-05  0.865E-05  0.865E-05  0.927E-05
 11.080  0.357E-04  0.923E-05  0.862E-05  0.862E-05  0.923E-05
 11.090  0.355E-04  0.919E-05  0.859E-05  0.859E-05  0.919E-05
 11.100  0.354E-04  0.915E-05  0.856E-05  0.856E-05  0.915E-05
 11.110  0.353E-04  0.911E-05  0.852E-05  0.852E-05  0.911E-05
 11.120  0.351E-04  0.907E-05  0.849E-05  0.849E-05  0.907E-05
 11.130  0.350E-04  0.904E-05  0.846E-05  0.846E-05  0.904E-05
 11.140  0.349E-04  0.900E-05  0.843E-05  0.843E-05  0.900E-05
 11.150  0.347E-04  0.896E-05  0.840E-05  0.840E-05  0.896E-05
 11.160  0.346E-04  0.892E-05  0.837E-05  0.837E-05  0.892E-05
 11.170  0.345E-04  0.889E-05  0.834E-05  0.834E-05  0.889E-05
 11.180  0.343E-04  0.885E-05  0.831E-05  0.831E-05  0.885E-05
 11.190  0.342E-04  0.881E-05  0.828E-05  0.828E-05  0.881E-05
 11.200  0.341E-04  0.877E-05  0.825E-05  0.825E-05  0.877E-05
 11.210  0.339E-04  0.874E-05  0.822E-05  0.822E-05  0.874E-05
 11.220  0.338E-04  0.870E-05  0.819E-05  0.819E-05  0.870E-05
 11.230  0.337E-04  0.867E-05  0.817E-05  0.817E-05  0.867E-05
 11.240  0.336E-04  0.864E-05  0.814E-05  0.814E-05  0.864E-05
 11.250  0.334E-04  0.860E-05  0.811E-05  0.811E-05  0.860E-05
 11.260  0.333E-04  0.857E-05  0.809E-05  0.809E-05  0.857E-05
 11.270  0.332E-04  0.854E-05  0.806E-05  0.806E-05  0.854E-05
 11.280  0.331E-04  0.851E-05  0.804E-05  0.804E-05  0.851E-05
 11.290  0.330E-04  0.848E-05  0.801E-05  0.801E-05  0.848E-05
 11.300  0.329E-04  0.845E-05  0.798E-05  0.798E-05  0.845E-05
 11.310  0.327E-04  0.841E-05  0.796E-05  0.796E-05  0.841E-05
 11.320  0.326E-04  0.838E-05  0.793E-05  0.793E-05  0.838E-05
 11.330  0.325E-04  0.835E-05  0.791E-05  0.791E-05  0.835E-05
 11.340  0.324E-04  0.832E-05  0.788E-05  0.788E-05  0.832E-05
 11.350  0.323E-04  0.828E-05  0.786E-05  0.786E-05  0.828E-05
 11.360  0.322E-04  0.825E-05  0.783E-05  0.783E-05  0.825E-05
 11.370  0.321E-04  0.822E-05  0.781E-05  0.781E-05  0.822E-05
 11.380  0.320E-04  0.819E-05  0.778E-05  0.778E-05  0.819E-05
 11.390  0.318E-04  0.816E-05  0.776E-05  0.776E-05  0.816E-05
 11.400  0.317E-04  0.814E-05  0.774E-05  0.774E-05  0.814E-05
 11.410  0.316E-04  0.811E-05  0.772E-05  0.772E-05  0.811E-05
 11.420  0.315E-04  0.808E-05  0.769E-05  0.769E-05  0.808E-05
 11.430  0.315E-04  0.805E-05  0.767E-05  0.767E-05  0.805E-05
 11.440  0.314E-04  0.803E-05  0.765E-05  0.765E-05  0.803E-05
 11.450  0.312E-04  0.800E-05  0.763E-05  0.763E-05  0.800E-05
 11.460  0.311E-04  0.797E-05  0.760E-05  0.760E-05  0.797E-05
 11.470  0.310E-04  0.794E-05  0.758E-05  0.758E-05  0.794E-05
 11.480  0.309E-04  0.791E-05  0.756E-05  0.756E-05  0.791E-05
 11.490  0.308E-04  0.788E-05  0.753E-05  0.753E-05  0.788E-05
 11.500  0.307E-04  0.786E-05  0.751E-05  0.751E-05  0.786E-05
 11.510  0.306E-04  0.783E-05  0.749E-05  0.749E-05  0.783E-05
 11.520  0.305E-04  0.780E-05  0.747E-05  0.747E-05  0.780E-05
 11.530  0.304E-04  0.778E-05  0.745E-05  0.745E-05  0.778E-05
 11.540  0.304E-04  0.775E-05  0.743E-05  0.743E-05  0.775E-05
 11.550  0.303E-04  0.773E-05  0.741E-05  0.741E-05  0.773E-05
 11.560  0.302E-04  0.771E-05  0.739E-05  0.739E-05  0.771E-05
 11.570  0.301E-04  0.770E-05  0.738E-05  0.738E-05  0.770E-05
 11.580  0.301E-04  0.768E-05  0.736E-05  0.736E-05  0.768E-05
 11.590  0.300E-04  0.766E-05  0.735E-05  0.735E-05  0.766E-05
 11.600  0.300E-04  0.765E-05  0.734E-05  0.734E-05  0.765E-05
 11.610  0.299E-04  0.764E-05  0.733E-05  0.733E-05  0.764E-05
 11.620  0.299E-04  0.763E-05  0.732E-05  0.732E-05  0.763E-05
 11.630  0.299E-04  0.763E-05  0.732E-05  0.732E-05  0.763E-05
 11.640  0.299E-04  0.763E-05  0.732E-05  0.732E-05  0.763E-05
 11.650  0.299E-04  0.764E-05  0.732E-05  0.732E-05  0.764E-05
 11.660  0.300E-04  0.765E-05  0.733E-05  0.733E-05  0.765E-05
 11.670  0.301E-04  0.768E-05  0.735E-05  0.735E-05  0.768E-05
 11.680  0.302E-04  0.771E-05  0.738E-05  0.738E-05  0.771E-05
 11.690  0.303E-04  0.775E-05  0.741E-05  0.741E-05  0.775E-05
 11.700  0.305E-04  0.781E-05  0.745E-05  0.745E-05  0.781E-05
 11.710  0.308E-04  0.787E-05  0.751E-05  0.751E-05  0.787E-05
 11.720  0.310E-04  0.795E-05  0.758E-05  0.758E-05  0.795E-05
 11.730  0.314E-04  0.803E-05  0.766E-05  0.766E-05  0.803E-05
 11.740  0.317E-04  0.813E-05  0.775E-05  0.775E-05  0.813E-05
 11.750  0.322E-04  0.823E-05  0.785E-05  0.785E-05  0.823E-05
 11.760  0.326E-04  0.835E-05  0.797E-05  0.797E-05  0.835E-05
 11.770  0.331E-04  0.847E-05  0.809E-05  0.809E-05  0.847E-05
 11.780  0.337E-04  0.860E-05  0.823E-05  0.823E-05  0.860E-05
 11.790  0.342E-04  0.874E-05  0.838E-05  0.838E-05  0.874E-05
 11.800  0.349E-04  0.889E-05  0.854E-05  0.854E-05  0.889E-05
 11.810  0.355E-04  0.903E-05  0.871E-05  0.871E-05  0.903E-05
 11.820  0.361E-04  0.918E-05  0.888E-05  0.888E-05  0.918E-05
 11.830  0.368E-04  0.934E-05  0.906E-05  0.906E-05  0.934E-05
 11.840  0.374E-04  0.948E-05  0.923E-05  0.923E-05  0.948E-05
 11.850  0.381E-04  0.963E-05  0.940E-05  0.940E-05  0.963E-05
 11.860  0.387E-04  0.976E-05  0.957E-05  0.957E-05  0.976E-05
 11.870  0.392E-04  0.989E-05  0.972E-05  0.972E-05  0.989E-05
 11.880  0.397E-04  0.100E-04  0.987E-05  0.987E-05  0.100E-04
 11.890  0.402E-04  0.101E-04  0.999E-05  0.999E-05  0.101E-04
 11.900  0.406E-04  0.102E-04  0.101E-04  0.101E-04  0.102E-04
 11.910  0.408E-04  0.102E-04  0.102E-04  0.102E-04  0.102E-04
 11.920  0.410E-04  0.103E-04  0.102E-04  0.102E-04  0.103E-04
 11.930  0.411E-04  0.103E-04  0.102E-04  0.102E-04  0.103E-04
 11.940  0.411E-04  0.103E-04  0.102E-04  0.102E-04  0.103E-04
 11.950  0.410E-04  0.103E-04  0.102E-04  0.102E-04  0.103E-04
 11.960  0.408E-04  0.102E-04  0.102E-04  0.102E-04  0.102E-04
 11.970  0.405E-04  0.102E-04  0.101E-04  0.101E-04  0.102E-04
 11.980  0.401E-04  0.101E-04  0.999E-05  0.999E-05  0.101E-04
 11.990  0.397E-04  0.997E-05  0.987E-05  0.987E-05  0.997E-05
 12.000  0.392E-04  0.984E-05  0.973E-05  0.973E-05  0.984E-05
 12.010  0.386E-04  0.971E-05  0.959E-05  0.959E-05  0.971E-05
 12.020  0.380E-04  0.955E-05  0.943E-05  0.943E-05  0.955E-05
 12.030  0.373E-04  0.939E-05  0.927E-05  0.927E-05  0.939E-05
 12.040  0.367E-04  0.923E-05  0.911E-05  0.911E-05  0.923E-05
 12.050  0.360E-04  0.906E-05  0.895E-05  0.895E-05  0.906E-05
 12.060  0.354E-04  0.888E-05  0.879E-05  0.879E-05  0.888E-05
 12.070  0.347E-04  0.872E-05  0.864E-05  0.864E-05  0.872E-05
 12.080  0.341E-04  0.855E-05  0.850E-05  0.850E-05  0.855E-05
 12.090  0.335E-04  0.840E-05  0.837E-05  0.837E-05  0.840E-05
 12.100  0.330E-04  0.825E-05  0.826E-05  0.826E-05  0.825E-05
 12.110  0.325E-04  0.812E-05  0.815E-05  0.815E-05  0.812E-05
 12.120  0.321E-04  0.800E-05  0.805E-05  0.805E-05  0.800E-05
 12.130  0.317E-04  0.790E-05  0.797E-05  0.797E-05  0.790E-05
 12.140  0.314E-04  0.782E-05  0.790E-05  0.790E-05  0.782E-05
 12.150  0.312E-04  0.775E-05  0.784E-05  0.784E-05  0.775E-05
 12.160  0.310E-04  0.770E-05  0.779E-05  0.779E-05  0.770E-05
 12.170  0.308E-04  0.766E-05  0.775E-05  0.775E-05  0.766E-05
 12.180  0.307E-04  0.764E-05  0.772E-05  0.772E-05  0.764E-05
 12.190  0.306E-04  0.763E-05  0.770E-05  0.770E-05  0.763E-05
 12.200  0.306E-04  0.763E-05  0.767E-05  0.767E-05  0.763E-05
 12.210  0.306E-04  0.764E-05  0.766E-05  0.766E-05  0.764E-05
 12.220  0.306E-04  0.765E-05  0.764E-05  0.764E-05  0.765E-05
 12.230  0.306E-04  0.768E-05  0.763E-05  0.763E-05  0.768E-05
 12.240  0.306E-04  0.770E-05  0.762E-05  0.762E-05  0.770E-05
 12.250  0.307E-04  0.773E-05  0.761E-05  0.761E-05  0.773E-05
 12.260  0.307E-04  0.776E-05  0.760E-05  0.760E-05  0.776E-05
 12.270  0.307E-04  0.779E-05  0.758E-05  0.758E-05  0.779E-05
 12.280  0.308E-04  0.781E-05  0.757E-05  0.757E-05  0.781E-05
 12.290  0.308E-04  0.783E-05  0.756E-05  0.756E-05  0.783E-05
 12.300  0.308E-04  0.785E-05  0.755E-05  0.755E-05  0.785E-05
 12.310  0.308E-04  0.786E-05  0.754E-05  0.754E-05  0.786E-05
 12.320  0.308E-04  0.787E-05  0.753E-05  0.753E-05  0.787E-05
 12.330  0.307E-04  0.786E-05  0.751E-05  0.751E-05  0.786E-05
 12.340  0.307E-04  0.785E-05  0.750E-05  0.750E-05  0.785E-05
 12.350  0.306E-04  0.782E-05  0.748E-05  0.748E-05  0.782E-05
 12.360  0.305E-04  0.779E-05  0.747E-05  0.747E-05  0.779E-05
 12.370  0.304E-04  0.774E-05  0.745E-05  0.745E-05  0.774E-05
 12.380  0.302E-04  0.768E-05  0.744E-05  0.744E-05  0.768E-05
 12.390  0.301E-04  0.761E-05  0.742E-05  0.742E-05  0.761E-05
 12.400  0.299E-04  0.753E-05  0.741E-05  0.741E-05  0.753E-05
 12.410  0.297E-04  0.744E-05  0.739E-05  0.739E-05  0.744E-05
 12.420  0.294E-04  0.734E-05  0.738E-05  0.738E-05  0.734E-05
 12.430  0.292E-04  0.724E-05  0.737E-05  0.737E-05  0.724E-05
 12.440  0.290E-04  0.713E-05  0.736E-05  0.736E-05  0.713E-05
 12.450  0.288E-04  0.702E-05  0.735E-05  0.735E-05  0.702E-05
 12.460  0.285E-04  0.691E-05  0.736E-05  0.736E-05  0.691E-05
 12.470  0.283E-04  0.681E-05  0.736E-05  0.736E-05  0.681E-05
 12.480  0.282E-04  0.671E-05  0.738E-05  0.738E-05  0.671E-05
 12.490  0.280E-04  0.662E-05  0.740E-05  0.740E-05  0.662E-05
 12.500  0.279E-04  0.653E-05  0.743E-05  0.743E-05  0.653E-05
 12.510  0.278E-04  0.646E-05  0.746E-05  0.746E-05  0.646E-05
 12.520  0.278E-04  0.640E-05  0.751E-05  0.751E-05  0.640E-05
 12.530  0.278E-04  0.635E-05  0.756E-05  0.756E-05  0.635E-05
 12.540  0.279E-04  0.632E-05  0.762E-05  0.762E-05  0.632E-05
 12.550  0.280E-04  0.630E-05  0.768E-05  0.768E-05  0.630E-05
 12.560  0.281E-04  0.629E-05  0.775E-05  0.775E-05  0.629E-05
 12.570  0.282E-04  0.629E-05  0.781E-05  0.781E-05  0.629E-05
 12.580  0.284E-04  0.631E-05  0.789E-05  0.789E-05  0.631E-05
 12.590  0.286E-04  0.633E-05  0.796E-05  0.796E-05  0.633E-05
 12.600  0.288E-04  0.636E-05  0.802E-05  0.802E-05  0.636E-05
 12.610  0.290E-04  0.639E-05  0.809E-05  0.809E-05  0.639E-05
 12.620  0.292E-04  0.643E-05  0.815E-05  0.815E-05  0.643E-05
 12.630  0.293E-04  0.647E-05  0.820E-05  0.820E-05  0.647E-05
 12.640  0.295E-04  0.651E-05  0.825E-05  0.825E-05  0.651E-05
 12.650  0.297E-04  0.655E-05  0.828E-05  0.828E-05  0.655E-05
 12.660  0.298E-04  0.659E-05  0.831E-05  0.831E-05  0.659E-05
 12.670  0.299E-04  0.662E-05  0.833E-05  0.833E-05  0.662E-05
 12.680  0.300E-04  0.665E-05  0.834E-05  0.834E-05  0.665E-05
 12.690  0.301E-04  0.668E-05  0.834E-05  0.834E-05  0.668E-05
 12.700  0.301E-04  0.671E-05  0.833E-05  0.833E-05  0.671E-05
 12.710  0.301E-04  0.673E-05  0.831E-05  0.831E-05  0.673E-05
 12.720  0.300E-04  0.674E-05  0.828E-05  0.828E-05  0.674E-05
 12.730  0.300E-04  0.676E-05  0.823E-05  0.823E-05  0.676E-05
 12.740  0.299E-04  0.676E-05  0.818E-05  0.818E-05  0.676E-05
 12.750  0.298E-04  0.676E-05  0.812E-05  0.812E-05  0.676E-05
 12.760  0.296E-04  0.676E-05  0.805E-05  0.805E-05  0.676E-05
 12.770  0.294E-04  0.676E-05  0.797E-05  0.797E-05  0.676E-05
 12.780  0.293E-04  0.675E-05  0.788E-05  0.788E-05  0.675E-05
 12.790  0.291E-04  0.673E-05  0.779E-05  0.779E-05  0.673E-05
 12.800  0.288E-04  0.672E-05  0.770E-05  0.770E-05  0.672E-05
 12.810  0.286E-04  0.670E-05  0.760E-05  0.760E-05  0.670E-05
 12.820  0.284E-04  0.668E-05  0.750E-05  0.750E-05  0.668E-05
 12.830  0.281E-04  0.666E-05  0.740E-05  0.740E-05  0.666E-05
 12.840  0.279E-04  0.664E-05  0.730E-05  0.730E-05  0.664E-05
 12.850  0.276E-04  0.662E-05  0.720E-05  0.720E-05  0.662E-05
 12.860  0.274E-04  0.659E-05  0.711E-05  0.711E-05  0.659E-05
 12.870  0.272E-04  0.657E-05  0.701E-05  0.701E-05  0.657E-05
 12.880  0.269E-04  0.655E-05  0.692E-05  0.692E-05  0.655E-05
 12.890  0.267E-04  0.652E-05  0.683E-05  0.683E-05  0.652E-05
 12.900  0.265E-04  0.650E-05  0.674E-05  0.674E-05  0.650E-05
 12.910  0.263E-04  0.648E-05  0.666E-05  0.666E-05  0.648E-05
 12.920  0.261E-04  0.646E-05  0.658E-05  0.658E-05  0.646E-05
 12.930  0.259E-04  0.644E-05  0.650E-05  0.650E-05  0.644E-05
 12.940  0.257E-04  0.642E-05  0.643E-05  0.643E-05  0.642E-05
 12.950  0.255E-04  0.640E-05  0.636E-05  0.636E-05  0.640E-05
 12.960  0.254E-04  0.638E-05  0.630E-05  0.630E-05  0.638E-05
 12.970  0.252E-04  0.636E-05  0.624E-05  0.624E-05  0.636E-05
 12.980  0.251E-04  0.635E-05  0.618E-05  0.618E-05  0.635E-05
 12.990  0.249E-04  0.633E-05  0.612E-05  0.612E-05  0.633E-05
 13.000  0.248E-04  0.632E-05  0.607E-05  0.607E-05  0.632E-05
 13.010  0.247E-04  0.631E-05  0.603E-05  0.603E-05  0.631E-05
 13.020  0.246E-04  0.630E-05  0.598E-05  0.598E-05  0.630E-05
 13.030  0.245E-04  0.629E-05  0.594E-05  0.594E-05  0.629E-05
 13.040  0.244E-04  0.628E-05  0.590E-05  0.590E-05  0.628E-05
 13.050  0.243E-04  0.627E-05  0.587E-05  0.587E-05  0.627E-05
 13.060  0.242E-04  0.626E-05  0.583E-05  0.583E-05  0.626E-05
 13.070  0.241E-04  0.626E-05  0.580E-05  0.580E-05  0.626E-05
 13.080  0.240E-04  0.625E-05  0.577E-05  0.577E-05  0.625E-05
 13.090  0.240E-04  0.625E-05  0.573E-05  0.573E-05  0.625E-05
 13.100  0.239E-04  0.625E-05  0.571E-05  0.571E-05  0.625E-05
 13.110  0.238E-04  0.624E-05  0.568E-05  0.568E-05  0.624E-05
 13.120  0.238E-04  0.624E-05  0.565E-05  0.565E-05  0.624E-05
 13.130  0.237E-04  0.624E-05  0.562E-05  0.562E-05  0.624E-05
 13.140  0.237E-04  0.624E-05  0.560E-05  0.560E-05  0.624E-05
 13.150  0.236E-04  0.624E-05  0.558E-05  0.558E-05  0.624E-05
 13.160  0.236E-04  0.625E-05  0.556E-05  0.556E-05  0.625E-05
 13.170  0.236E-04  0.625E-05  0.554E-05  0.554E-05  0.625E-05
 13.180  0.235E-04  0.625E-05  0.552E-05  0.552E-05  0.625E-05
 13.190  0.235E-04  0.626E-05  0.550E-05  0.550E-05  0.626E-05
 13.200  0.235E-04  0.627E-05  0.548E-05  0.548E-05  0.627E-05
 13.210  0.235E-04  0.628E-05  0.547E-05  0.547E-05  0.628E-05
 13.220  0.235E-04  0.629E-05  0.545E-05  0.545E-05  0.629E-05
 13.230  0.235E-04  0.630E-05  0.544E-05  0.544E-05  0.630E-05
 13.240  0.235E-04  0.632E-05  0.542E-05  0.542E-05  0.632E-05
 13.250  0.235E-04  0.633E-05  0.541E-05  0.541E-05  0.633E-05
 13.260  0.235E-04  0.635E-05  0.540E-05  0.540E-05  0.635E-05
 13.270  0.235E-04  0.637E-05  0.540E-05  0.540E-05  0.637E-05
 13.280  0.236E-04  0.640E-05  0.539E-05  0.539E-05  0.640E-05
 13.290  0.236E-04  0.643E-05  0.539E-05  0.539E-05  0.643E-05
 13.300  0.237E-04  0.646E-05  0.540E-05  0.540E-05  0.646E-05
 13.310  0.238E-04  0.650E-05  0.540E-05  0.540E-05  0.650E-05
 13.320  0.239E-04  0.654E-05  0.541E-05  0.541E-05  0.654E-05
 13.330  0.241E-04  0.659E-05  0.543E-05  0.543E-05  0.659E-05
 13.340  0.242E-04  0.665E-05  0.545E-05  0.545E-05  0.665E-05
 13.350  0.244E-04  0.671E-05  0.548E-05  0.548E-05  0.671E-05
 13.360  0.246E-04  0.679E-05  0.552E-05  0.552E-05  0.679E-05
 13.370  0.248E-04  0.686E-05  0.556E-05  0.556E-05  0.686E-05
 13.380  0.251E-04  0.695E-05  0.561E-05  0.561E-05  0.695E-05
 13.390  0.254E-04  0.704E-05  0.567E-05  0.567E-05  0.704E-05
 13.400  0.257E-04  0.714E-05  0.573E-05  0.573E-05  0.714E-05
 13.410  0.261E-04  0.725E-05  0.580E-05  0.580E-05  0.725E-05
 13.420  0.265E-04  0.736E-05  0.588E-05  0.588E-05  0.736E-05
 13.430  0.269E-04  0.747E-05  0.596E-05  0.596E-05  0.747E-05
 13.440  0.272E-04  0.758E-05  0.605E-05  0.605E-05  0.758E-05
 13.450  0.276E-04  0.768E-05  0.613E-05  0.613E-05  0.768E-05
 13.460  0.280E-04  0.778E-05  0.622E-05  0.622E-05  0.778E-05
 13.470  0.283E-04  0.787E-05  0.630E-05  0.630E-05  0.787E-05
 13.480  0.286E-04  0.794E-05  0.638E-05  0.638E-05  0.794E-05
 13.490  0.289E-04  0.799E-05  0.645E-05  0.645E-05  0.799E-05
 13.500  0.290E-04  0.802E-05  0.650E-05  0.650E-05  0.802E-05
 13.510  0.291E-04  0.802E-05  0.654E-05  0.654E-05  0.802E-05
 13.520  0.291E-04  0.799E-05  0.655E-05  0.655E-05  0.799E-05
 13.530  0.289E-04  0.792E-05  0.655E-05  0.655E-05  0.792E-05
 13.540  0.287E-04  0.782E-05  0.652E-05  0.652E-05  0.782E-05
 13.550  0.283E-04  0.768E-05  0.646E-05  0.646E-05  0.768E-05
 13.560  0.278E-04  0.751E-05  0.637E-05  0.637E-05  0.751E-05
 13.570  0.271E-04  0.730E-05  0.626E-05  0.626E-05  0.730E-05
 13.580  0.264E-04  0.706E-05  0.612E-05  0.612E-05  0.706E-05
 13.590  0.255E-04  0.680E-05  0.596E-05  0.596E-05  0.680E-05
 13.600  0.246E-04  0.651E-05  0.578E-05  0.578E-05  0.651E-05
 13.610  0.236E-04  0.621E-05  0.558E-05  0.558E-05  0.621E-05
 13.620  0.225E-04  0.590E-05  0.537E-05  0.537E-05  0.590E-05
 13.630  0.214E-04  0.558E-05  0.514E-05  0.514E-05  0.558E-05
 13.640  0.203E-04  0.527E-05  0.491E-05  0.491E-05  0.527E-05
 13.650  0.193E-04  0.496E-05  0.467E-05  0.467E-05  0.496E-05
 13.660  0.182E-04  0.467E-05  0.443E-05  0.443E-05  0.467E-05
 13.670  0.172E-04  0.439E-05  0.420E-05  0.420E-05  0.439E-05
 13.680  0.162E-04  0.413E-05  0.397E-05  0.397E-05  0.413E-05
 13.690  0.153E-04  0.389E-05  0.375E-05  0.375E-05  0.389E-05
 13.700  0.144E-04  0.368E-05  0.354E-05  0.354E-05  0.368E-05
 13.710  0.137E-04  0.349E-05  0.334E-05  0.334E-05  0.349E-05
 13.720  0.130E-04  0.333E-05  0.315E-05  0.315E-05  0.333E-05
 13.730  0.123E-04  0.318E-05  0.298E-05  0.298E-05  0.318E-05
 13.740  0.117E-04  0.306E-05  0.281E-05  0.281E-05  0.306E-05
 13.750  0.112E-04  0.295E-05  0.266E-05  0.266E-05  0.295E-05
 13.760  0.108E-04  0.286E-05  0.253E-05  0.253E-05  0.286E-05
 13.770  0.104E-04  0.279E-05  0.240E-05  0.240E-05  0.279E-05
 13.780  0.100E-04  0.273E-05  0.229E-05  0.229E-05  0.273E-05
 13.790  0.975E-05  0.268E-05  0.219E-05  0.219E-05  0.268E-05
 13.800  0.950E-05  0.264E-05  0.211E-05  0.211E-05  0.264E-05
 13.810  0.929E-05  0.261E-05  0.204E-05  0.204E-05  0.261E-05
 13.820  0.913E-05  0.259E-05  0.198E-05  0.198E-05  0.259E-05
 13.830  0.900E-05  0.257E-05  0.193E-05  0.193E-05  0.257E-05
 13.840  0.891E-05  0.257E-05  0.189E-05  0.189E-05  0.257E-05
 13.850  0.885E-05  0.256E-05  0.186E-05  0.186E-05  0.256E-05
 13.860  0.882E-05  0.256E-05  0.184E-05  0.184E-05  0.256E-05
 13.870  0.881E-05  0.257E-05  0.183E-05  0.183E-05  0.257E-05
 13.880  0.883E-05  0.258E-05  0.183E-05  0.183E-05  0.258E-05
 13.890  0.886E-05  0.259E-05  0.184E-05  0.184E-05  0.259E-05
 13.900  0.892E-05  0.261E-05  0.185E-05  0.185E-05  0.261E-05
 13.910  0.898E-05  0.263E-05  0.186E-05  0.186E-05  0.263E-05
 13.920  0.906E-05  0.265E-05  0.188E-05  0.188E-05  0.265E-05
 13.930  0.914E-05  0.267E-05  0.190E-05  0.190E-05  0.267E-05
 13.940  0.924E-05  0.269E-05  0.193E-05  0.193E-05  0.269E-05
 13.950  0.933E-05  0.271E-05  0.196E-05  0.196E-05  0.271E-05
 13.960  0.944E-05  0.273E-05  0.199E-05  0.199E-05  0.273E-05
 13.970  0.955E-05  0.275E-05  0.203E-05  0.203E-05  0.275E-05
 13.980  0.968E-05  0.277E-05  0.207E-05  0.207E-05  0.277E-05
 13.990  0.982E-05  0.280E-05  0.211E-05  0.211E-05  0.280E-05
 14.000  0.999E-05  0.283E-05  0.217E-05  0.217E-05  0.283E-05
 14.010  0.102E-04  0.286E-05  0.223E-05  0.223E-05  0.286E-05
 14.020  0.104E-04  0.289E-05  0.231E-05  0.231E-05  0.289E-05
 14.030  0.107E-04  0.293E-05  0.240E-05  0.240E-05  0.293E-05
 14.040  0.110E-04  0.298E-05  0.252E-05  0.252E-05  0.298E-05
 14.050  0.114E-04  0.303E-05  0.266E-05  0.266E-05  0.303E-05
 14.060  0.119E-04  0.310E-05  0.283E-05  0.283E-05  0.310E-05
 14.070  0.124E-04  0.318E-05  0.303E-05  0.303E-05  0.318E-05
 14.080  0.131E-04  0.327E-05  0.327E-05  0.327E-05  0.327E-05
 14.090  0.138E-04  0.337E-05  0.355E-05  0.355E-05  0.337E-05
 14.100  0.147E-04  0.349E-05  0.387E-05  0.387E-05  0.349E-05
 14.110  0.157E-04  0.362E-05  0.424E-05  0.424E-05  0.362E-05
 14.120  0.169E-04  0.377E-05  0.466E-05  0.466E-05  0.377E-05
 14.130  0.181E-04  0.394E-05  0.513E-05  0.513E-05  0.394E-05
 14.140  0.195E-04  0.412E-05  0.564E-05  0.564E-05  0.412E-05
 14.150  0.210E-04  0.431E-05  0.619E-05  0.619E-05  0.431E-05
 14.160  0.226E-04  0.452E-05  0.678E-05  0.678E-05  0.452E-05
 14.170  0.243E-04  0.473E-05  0.740E-05  0.740E-05  0.473E-05
 14.180  0.259E-04  0.494E-05  0.803E-05  0.803E-05  0.494E-05
 14.190  0.276E-04  0.515E-05  0.867E-05  0.867E-05  0.515E-05
 14.200  0.293E-04  0.536E-05  0.929E-05  0.929E-05  0.536E-05
 14.210  0.309E-04  0.555E-05  0.989E-05  0.989E-05  0.555E-05
 14.220  0.324E-04  0.573E-05  0.104E-04  0.104E-04  0.573E-05
 14.230  0.337E-04  0.588E-05  0.110E-04  0.110E-04  0.588E-05
 14.240  0.348E-04  0.600E-05  0.114E-04  0.114E-04  0.600E-05
 14.250  0.356E-04  0.609E-05  0.117E-04  0.117E-04  0.609E-05
 14.260  0.362E-04  0.615E-05  0.120E-04  0.120E-04  0.615E-05
 14.270  0.365E-04  0.616E-05  0.121E-04  0.121E-04  0.616E-05
 14.280  0.365E-04  0.613E-05  0.121E-04  0.121E-04  0.613E-05
 14.290  0.362E-04  0.607E-05  0.120E-04  0.120E-04  0.607E-05
 14.300  0.355E-04  0.596E-05  0.118E-04  0.118E-04  0.596E-05
 14.310  0.346E-04  0.581E-05  0.115E-04  0.115E-04  0.581E-05
 14.320  0.334E-04  0.562E-05  0.111E-04  0.111E-04  0.562E-05
 14.330  0.319E-04  0.541E-05  0.106E-04  0.106E-04  0.541E-05
 14.340  0.303E-04  0.517E-05  0.997E-05  0.997E-05  0.517E-05
 14.350  0.285E-04  0.491E-05  0.933E-05  0.933E-05  0.491E-05
 14.360  0.266E-04  0.464E-05  0.864E-05  0.864E-05  0.464E-05
 14.370  0.246E-04  0.436E-05  0.794E-05  0.794E-05  0.436E-05
 14.380  0.226E-04  0.408E-05  0.722E-05  0.722E-05  0.408E-05
 14.390  0.206E-04  0.380E-05  0.652E-05  0.652E-05  0.380E-05
 14.400  0.188E-04  0.353E-05  0.585E-05  0.585E-05  0.353E-05
 14.410  0.170E-04  0.328E-05  0.521E-05  0.521E-05  0.328E-05
 14.420  0.153E-04  0.304E-05  0.463E-05  0.463E-05  0.304E-05
 14.430  0.138E-04  0.283E-05  0.410E-05  0.410E-05  0.283E-05
 14.440  0.125E-04  0.263E-05  0.363E-05  0.363E-05  0.263E-05
 14.450  0.114E-04  0.246E-05  0.323E-05  0.323E-05  0.246E-05
 14.460  0.104E-04  0.230E-05  0.290E-05  0.290E-05  0.230E-05
 14.470  0.960E-05  0.217E-05  0.263E-05  0.263E-05  0.217E-05
 14.480  0.896E-05  0.206E-05  0.242E-05  0.242E-05  0.206E-05
 14.490  0.847E-05  0.197E-05  0.226E-05  0.226E-05  0.197E-05
 14.500  0.810E-05  0.190E-05  0.216E-05  0.216E-05  0.190E-05
 14.510  0.785E-05  0.183E-05  0.209E-05  0.209E-05  0.183E-05
 14.520  0.769E-05  0.179E-05  0.206E-05  0.206E-05  0.179E-05
 14.530  0.760E-05  0.175E-05  0.205E-05  0.205E-05  0.175E-05
 14.540  0.757E-05  0.172E-05  0.207E-05  0.207E-05  0.172E-05
 14.550  0.758E-05  0.170E-05  0.209E-05  0.209E-05  0.170E-05
 14.560  0.761E-05  0.168E-05  0.213E-05  0.213E-05  0.168E-05
 14.570  0.765E-05  0.166E-05  0.216E-05  0.216E-05  0.166E-05
 14.580  0.770E-05  0.165E-05  0.220E-05  0.220E-05  0.165E-05
 14.590  0.774E-05  0.164E-05  0.223E-05  0.223E-05  0.164E-05
 14.600  0.777E-05  0.163E-05  0.225E-05  0.225E-05  0.163E-05
 14.610  0.777E-05  0.163E-05  0.226E-05  0.226E-05  0.163E-05
 14.620  0.777E-05  0.162E-05  0.226E-05  0.226E-05  0.162E-05
 14.630  0.774E-05  0.161E-05  0.226E-05  0.226E-05  0.161E-05
 14.640  0.769E-05  0.160E-05  0.224E-05  0.224E-05  0.160E-05
 14.650  0.762E-05  0.160E-05  0.221E-05  0.221E-05  0.160E-05
 14.660  0.753E-05  0.159E-05  0.217E-05  0.217E-05  0.159E-05
 14.670  0.742E-05  0.158E-05  0.213E-05  0.213E-05  0.158E-05
 14.680  0.730E-05  0.158E-05  0.207E-05  0.207E-05  0.158E-05
 14.690  0.716E-05  0.157E-05  0.201E-05  0.201E-05  0.157E-05
 14.700  0.701E-05  0.156E-05  0.195E-05  0.195E-05  0.156E-05
 14.710  0.685E-05  0.155E-05  0.187E-05  0.187E-05  0.155E-05
 14.720  0.668E-05  0.154E-05  0.180E-05  0.180E-05  0.154E-05
 14.730  0.650E-05  0.153E-05  0.172E-05  0.172E-05  0.153E-05
 14.740  0.632E-05  0.152E-05  0.164E-05  0.164E-05  0.152E-05
 14.750  0.613E-05  0.151E-05  0.156E-05  0.156E-05  0.151E-05
 14.760  0.593E-05  0.149E-05  0.147E-05  0.147E-05  0.149E-05
 14.770  0.573E-05  0.147E-05  0.139E-05  0.139E-05  0.147E-05
 14.780  0.553E-05  0.145E-05  0.131E-05  0.131E-05  0.145E-05
 14.790  0.532E-05  0.143E-05  0.123E-05  0.123E-05  0.143E-05
 14.800  0.512E-05  0.140E-05  0.115E-05  0.115E-05  0.140E-05
 14.810  0.491E-05  0.138E-05  0.108E-05  0.108E-05  0.138E-05
 14.820  0.471E-05  0.134E-05  0.101E-05  0.101E-05  0.134E-05
 14.830  0.451E-05  0.131E-05  0.942E-06  0.942E-06  0.131E-05
 14.840  0.431E-05  0.127E-05  0.880E-06  0.880E-06  0.127E-05
 14.850  0.412E-05  0.124E-05  0.822E-06  0.822E-06  0.124E-05
 14.860  0.393E-05  0.120E-05  0.769E-06  0.769E-06  0.120E-05
 14.870  0.375E-05  0.116E-05  0.721E-06  0.721E-06  0.116E-05
 14.880  0.359E-05  0.111E-05  0.678E-06  0.678E-06  0.111E-05
 14.890  0.343E-05  0.107E-05  0.641E-06  0.641E-06  0.107E-05
 14.900  0.328E-05  0.103E-05  0.609E-06  0.609E-06  0.103E-05
 14.910  0.315E-05  0.994E-06  0.582E-06  0.582E-06  0.994E-06
 14.920  0.303E-05  0.957E-06  0.559E-06  0.559E-06  0.957E-06
 14.930  0.293E-05  0.923E-06  0.541E-06  0.541E-06  0.923E-06
 14.940  0.284E-05  0.892E-06  0.528E-06  0.528E-06  0.892E-06
 14.950  0.276E-05  0.863E-06  0.517E-06  0.517E-06  0.863E-06
 14.960  0.270E-05  0.839E-06  0.510E-06  0.510E-06  0.839E-06
 14.970  0.265E-05  0.817E-06  0.505E-06  0.505E-06  0.817E-06
 14.980  0.260E-05  0.800E-06  0.503E-06  0.503E-06  0.800E-06
 14.990  0.257E-05  0.785E-06  0.502E-06  0.502E-06  0.785E-06
 15.000  0.255E-05  0.773E-06  0.502E-06  0.502E-06  0.773E-06
 15.010  0.253E-05  0.763E-06  0.502E-06  0.502E-06  0.763E-06
