# E(eV)   ldos(E)   pdos(E)_1   pdos(E)_2   
 -5.000  0.000E+00  0.000E+00  0.000E+00
 -4.990  0.000E+00  0.000E+00  0.000E+00
 -4.980  0.000E+00  0.000E+00  0.000E+00
 -4.970  0.000E+00  0.000E+00  0.000E+00
 -4.960  0.000E+00  0.000E+00  0.000E+00
 -4.950  0.000E+00  0.000E+00  0.000E+00
 -4.940  0.000E+00  0.000E+00  0.000E+00
 -4.930  0.000E+00  0.000E+00  0.000E+00
 -4.920  0.000E+00  0.000E+00  0.000E+00
 -4.910  0.000E+00  0.000E+00  0.000E+00
 -4.900  0.000E+00  0.000E+00  0.000E+00
 -4.890  0.000E+00  0.000E+00  0.000E+00
 -4.880  0.000E+00  0.000E+00  0.000E+00
 -4.870  0.000E+00  0.000E+00  0.000E+00
 -4.860  0.000E+00  0.000E+00  0.000E+00
 -4.850  0.000E+00  0.000E+00  0.000E+00
 -4.840  0.000E+00  0.000E+00  0.000E+00
 -4.830  0.000E+00  0.000E+00  0.000E+00
 -4.820  0.000E+00  0.000E+00  0.000E+00
 -4.810  0.000E+00  0.000E+00  0.000E+00
 -4.800  0.000E+00  0.000E+00  0.000E+00
 -4.790  0.000E+00  0.000E+00  0.000E+00
 -4.780  0.000E+00  0.000E+00  0.000E+00
 -4.770  0.000E+00  0.000E+00  0.000E+00
 -4.760  0.000E+00  0.000E+00  0.000E+00
 -4.750  0.000E+00  0.000E+00  0.000E+00
 -4.740  0.000E+00  0.000E+00  0.000E+00
 -4.730  0.000E+00  0.000E+00  0.000E+00
 -4.720  0.000E+00  0.000E+00  0.000E+00
 -4.710  0.000E+00  0.000E+00  0.000E+00
 -4.700  0.000E+00  0.000E+00  0.000E+00
 -4.690  0.000E+00  0.000E+00  0.000E+00
 -4.680  0.000E+00  0.000E+00  0.000E+00
 -4.670  0.000E+00  0.000E+00  0.000E+00
 -4.660  0.000E+00  0.000E+00  0.000E+00
 -4.650  0.000E+00  0.000E+00  0.000E+00
 -4.640  0.000E+00  0.000E+00  0.000E+00
 -4.630  0.000E+00  0.000E+00  0.000E+00
 -4.620  0.000E+00  0.000E+00  0.000E+00
 -4.610  0.000E+00  0.000E+00  0.000E+00
 -4.600  0.000E+00  0.000E+00  0.000E+00
 -4.590  0.000E+00  0.000E+00  0.000E+00
 -4.580  0.000E+00  0.000E+00  0.000E+00
 -4.570  0.000E+00  0.000E+00  0.000E+00
 -4.560  0.000E+00  0.000E+00  0.000E+00
 -4.550  0.000E+00  0.000E+00  0.000E+00
 -4.540  0.000E+00  0.000E+00  0.000E+00
 -4.530  0.000E+00  0.000E+00  0.000E+00
 -4.520  0.000E+00  0.000E+00  0.000E+00
 -4.510  0.000E+00  0.000E+00  0.000E+00
 -4.500  0.000E+00  0.000E+00  0.000E+00
 -4.490  0.000E+00  0.000E+00  0.000E+00
 -4.480  0.000E+00  0.000E+00  0.000E+00
 -4.470  0.000E+00  0.000E+00  0.000E+00
 -4.460  0.000E+00  0.000E+00  0.000E+00
 -4.450  0.000E+00  0.000E+00  0.000E+00
 -4.440  0.000E+00  0.000E+00  0.000E+00
 -4.430  0.000E+00  0.000E+00  0.000E+00
 -4.420  0.000E+00  0.000E+00  0.000E+00
 -4.410  0.000E+00  0.000E+00  0.000E+00
 -4.400  0.000E+00  0.000E+00  0.000E+00
 -4.390  0.000E+00  0.000E+00  0.000E+00
 -4.380  0.000E+00  0.000E+00  0.000E+00
 -4.370  0.000E+00  0.000E+00  0.000E+00
 -4.360  0.000E+00  0.000E+00  0.000E+00
 -4.350  0.000E+00  0.000E+00  0.000E+00
 -4.340  0.000E+00  0.000E+00  0.000E+00
 -4.330  0.000E+00  0.000E+00  0.000E+00
 -4.320  0.000E+00  0.000E+00  0.000E+00
 -4.310  0.000E+00  0.000E+00  0.000E+00
 -4.300  0.000E+00  0.000E+00  0.000E+00
 -4.290  0.000E+00  0.000E+00  0.000E+00
 -4.280  0.000E+00  0.000E+00  0.000E+00
 -4.270  0.000E+00  0.000E+00  0.000E+00
 -4.260  0.000E+00  0.000E+00  0.000E+00
 -4.250  0.000E+00  0.000E+00  0.000E+00
 -4.240  0.000E+00  0.000E+00  0.000E+00
 -4.230  0.000E+00  0.000E+00  0.000E+00
 -4.220  0.000E+00  0.000E+00  0.000E+00
 -4.210  0.000E+00  0.000E+00  0.000E+00
 -4.200  0.000E+00  0.000E+00  0.000E+00
 -4.190  0.000E+00  0.000E+00  0.000E+00
 -4.180  0.000E+00  0.000E+00  0.000E+00
 -4.170  0.000E+00  0.000E+00  0.000E+00
 -4.160  0.000E+00  0.000E+00  0.000E+00
 -4.150  0.000E+00  0.000E+00  0.000E+00
 -4.140  0.000E+00  0.000E+00  0.000E+00
 -4.130  0.000E+00  0.000E+00  0.000E+00
 -4.120  0.000E+00  0.000E+00  0.000E+00
 -4.110  0.000E+00  0.000E+00  0.000E+00
 -4.100  0.000E+00  0.000E+00  0.000E+00
 -4.090  0.000E+00  0.000E+00  0.000E+00
 -4.080  0.000E+00  0.000E+00  0.000E+00
 -4.070  0.000E+00  0.000E+00  0.000E+00
 -4.060  0.000E+00  0.000E+00  0.000E+00
 -4.050  0.000E+00  0.000E+00  0.000E+00
 -4.040  0.000E+00  0.000E+00  0.000E+00
 -4.030  0.000E+00  0.000E+00  0.000E+00
 -4.020  0.000E+00  0.000E+00  0.000E+00
 -4.010  0.000E+00  0.000E+00  0.000E+00
 -4.000  0.000E+00  0.000E+00  0.000E+00
 -3.990  0.000E+00  0.000E+00  0.000E+00
 -3.980  0.000E+00  0.000E+00  0.000E+00
 -3.970  0.000E+00  0.000E+00  0.000E+00
 -3.960  0.000E+00  0.000E+00  0.000E+00
 -3.950  0.000E+00  0.000E+00  0.000E+00
 -3.940  0.000E+00  0.000E+00  0.000E+00
 -3.930  0.000E+00  0.000E+00  0.000E+00
 -3.920  0.000E+00  0.000E+00  0.000E+00
 -3.910  0.179E-16  0.896E-17  0.896E-17
 -3.900  0.411E-16  0.205E-16  0.205E-16
 -3.890  0.932E-16  0.466E-16  0.466E-16
 -3.880  0.225E-15  0.112E-15  0.112E-15
 -3.870  0.500E-15  0.250E-15  0.250E-15
 -3.860  0.110E-14  0.550E-15  0.550E-15
 -3.850  0.241E-14  0.120E-14  0.120E-14
 -3.840  0.519E-14  0.260E-14  0.260E-14
 -3.830  0.111E-13  0.553E-14  0.553E-14
 -3.820  0.233E-13  0.117E-13  0.117E-13
 -3.810  0.487E-13  0.243E-13  0.243E-13
 -3.800  0.100E-12  0.502E-13  0.502E-13
 -3.790  0.205E-12  0.102E-12  0.102E-12
 -3.780  0.414E-12  0.207E-12  0.207E-12
 -3.770  0.827E-12  0.413E-12  0.413E-12
 -3.760  0.163E-11  0.817E-12  0.817E-12
 -3.750  0.319E-11  0.160E-11  0.160E-11
 -3.740  0.617E-11  0.309E-11  0.309E-11
 -3.730  0.118E-10  0.590E-11  0.590E-11
 -3.720  0.223E-10  0.112E-10  0.112E-10
 -3.710  0.418E-10  0.209E-10  0.209E-10
 -3.700  0.774E-10  0.387E-10  0.387E-10
 -3.690  0.142E-09  0.709E-10  0.709E-10
 -3.680  0.257E-09  0.128E-09  0.128E-09
 -3.670  0.461E-09  0.230E-09  0.230E-09
 -3.660  0.817E-09  0.408E-09  0.408E-09
 -3.650  0.143E-08  0.716E-09  0.716E-09
 -3.640  0.249E-08  0.124E-08  0.124E-08
 -3.630  0.427E-08  0.213E-08  0.213E-08
 -3.620  0.725E-08  0.362E-08  0.362E-08
 -3.610  0.122E-07  0.609E-08  0.609E-08
 -3.600  0.202E-07  0.101E-07  0.101E-07
 -3.590  0.333E-07  0.166E-07  0.166E-07
 -3.580  0.541E-07  0.271E-07  0.271E-07
 -3.570  0.871E-07  0.436E-07  0.436E-07
 -3.560  0.139E-06  0.693E-07  0.693E-07
 -3.550  0.218E-06  0.109E-06  0.109E-06
 -3.540  0.340E-06  0.170E-06  0.170E-06
 -3.530  0.525E-06  0.262E-06  0.262E-06
 -3.520  0.800E-06  0.400E-06  0.400E-06
 -3.510  0.121E-05  0.603E-06  0.603E-06
 -3.500  0.180E-05  0.901E-06  0.901E-06
 -3.490  0.266E-05  0.133E-05  0.133E-05
 -3.480  0.389E-05  0.194E-05  0.194E-05
 -3.470  0.562E-05  0.281E-05  0.281E-05
 -3.460  0.804E-05  0.402E-05  0.402E-05
 -3.450  0.114E-04  0.569E-05  0.569E-05
 -3.440  0.159E-04  0.796E-05  0.796E-05
 -3.430  0.221E-04  0.110E-04  0.110E-04
 -3.420  0.302E-04  0.151E-04  0.151E-04
 -3.410  0.410E-04  0.205E-04  0.205E-04
 -3.400  0.551E-04  0.275E-04  0.275E-04
 -3.390  0.731E-04  0.366E-04  0.366E-04
 -3.380  0.961E-04  0.481E-04  0.481E-04
 -3.370  0.125E-03  0.625E-04  0.625E-04
 -3.360  0.161E-03  0.804E-04  0.804E-04
 -3.350  0.205E-03  0.102E-03  0.102E-03
 -3.340  0.258E-03  0.129E-03  0.129E-03
 -3.330  0.322E-03  0.161E-03  0.161E-03
 -3.320  0.398E-03  0.199E-03  0.199E-03
 -3.310  0.487E-03  0.243E-03  0.243E-03
 -3.300  0.589E-03  0.295E-03  0.295E-03
 -3.290  0.706E-03  0.353E-03  0.353E-03
 -3.280  0.837E-03  0.419E-03  0.419E-03
 -3.270  0.983E-03  0.492E-03  0.492E-03
 -3.260  0.114E-02  0.572E-03  0.572E-03
 -3.250  0.132E-02  0.658E-03  0.658E-03
 -3.240  0.150E-02  0.751E-03  0.751E-03
 -3.230  0.170E-02  0.849E-03  0.849E-03
 -3.220  0.190E-02  0.950E-03  0.950E-03
 -3.210  0.211E-02  0.105E-02  0.105E-02
 -3.200  0.232E-02  0.116E-02  0.116E-02
 -3.190  0.252E-02  0.126E-02  0.126E-02
 -3.180  0.273E-02  0.136E-02  0.136E-02
 -3.170  0.292E-02  0.146E-02  0.146E-02
 -3.160  0.310E-02  0.155E-02  0.155E-02
 -3.150  0.327E-02  0.164E-02  0.164E-02
 -3.140  0.342E-02  0.171E-02  0.171E-02
 -3.130  0.356E-02  0.178E-02  0.178E-02
 -3.120  0.367E-02  0.183E-02  0.183E-02
 -3.110  0.376E-02  0.188E-02  0.188E-02
 -3.100  0.383E-02  0.192E-02  0.192E-02
 -3.090  0.389E-02  0.194E-02  0.194E-02
 -3.080  0.392E-02  0.196E-02  0.196E-02
 -3.070  0.393E-02  0.197E-02  0.197E-02
 -3.060  0.393E-02  0.197E-02  0.197E-02
 -3.050  0.392E-02  0.196E-02  0.196E-02
 -3.040  0.389E-02  0.195E-02  0.195E-02
 -3.030  0.386E-02  0.193E-02  0.193E-02
 -3.020  0.382E-02  0.191E-02  0.191E-02
 -3.010  0.377E-02  0.188E-02  0.188E-02
 -3.000  0.372E-02  0.186E-02  0.186E-02
 -2.990  0.367E-02  0.183E-02  0.183E-02
 -2.980  0.362E-02  0.181E-02  0.181E-02
 -2.970  0.357E-02  0.178E-02  0.178E-02
 -2.960  0.352E-02  0.176E-02  0.176E-02
 -2.950  0.347E-02  0.174E-02  0.174E-02
 -2.940  0.343E-02  0.172E-02  0.172E-02
 -2.930  0.339E-02  0.170E-02  0.170E-02
 -2.920  0.335E-02  0.168E-02  0.168E-02
 -2.910  0.332E-02  0.166E-02  0.166E-02
 -2.900  0.329E-02  0.164E-02  0.164E-02
 -2.890  0.326E-02  0.163E-02  0.163E-02
 -2.880  0.323E-02  0.161E-02  0.161E-02
 -2.870  0.320E-02  0.160E-02  0.160E-02
 -2.860  0.318E-02  0.159E-02  0.159E-02
 -2.850  0.315E-02  0.158E-02  0.158E-02
 -2.840  0.313E-02  0.157E-02  0.157E-02
 -2.830  0.311E-02  0.155E-02  0.155E-02
 -2.820  0.309E-02  0.154E-02  0.154E-02
 -2.810  0.307E-02  0.154E-02  0.154E-02
 -2.800  0.305E-02  0.153E-02  0.153E-02
 -2.790  0.304E-02  0.152E-02  0.152E-02
 -2.780  0.302E-02  0.151E-02  0.151E-02
 -2.770  0.301E-02  0.151E-02  0.151E-02
 -2.760  0.300E-02  0.150E-02  0.150E-02
 -2.750  0.300E-02  0.150E-02  0.150E-02
 -2.740  0.300E-02  0.150E-02  0.150E-02
 -2.730  0.301E-02  0.151E-02  0.151E-02
 -2.720  0.303E-02  0.152E-02  0.152E-02
 -2.710  0.307E-02  0.153E-02  0.153E-02
 -2.700  0.312E-02  0.156E-02  0.156E-02
 -2.690  0.319E-02  0.159E-02  0.159E-02
 -2.680  0.328E-02  0.164E-02  0.164E-02
 -2.670  0.340E-02  0.170E-02  0.170E-02
 -2.660  0.355E-02  0.177E-02  0.177E-02
 -2.650  0.374E-02  0.187E-02  0.187E-02
 -2.640  0.397E-02  0.199E-02  0.199E-02
 -2.630  0.425E-02  0.213E-02  0.213E-02
 -2.620  0.458E-02  0.229E-02  0.229E-02
 -2.610  0.497E-02  0.248E-02  0.248E-02
 -2.600  0.541E-02  0.270E-02  0.270E-02
 -2.590  0.591E-02  0.295E-02  0.295E-02
 -2.580  0.646E-02  0.323E-02  0.323E-02
 -2.570  0.706E-02  0.353E-02  0.353E-02
 -2.560  0.771E-02  0.386E-02  0.386E-02
 -2.550  0.840E-02  0.420E-02  0.420E-02
 -2.540  0.911E-02  0.456E-02  0.456E-02
 -2.530  0.984E-02  0.492E-02  0.492E-02
 -2.520  0.106E-01  0.528E-02  0.528E-02
 -2.510  0.113E-01  0.563E-02  0.563E-02
 -2.500  0.119E-01  0.597E-02  0.597E-02
 -2.490  0.126E-01  0.628E-02  0.628E-02
 -2.480  0.131E-01  0.655E-02  0.655E-02
 -2.470  0.136E-01  0.678E-02  0.678E-02
 -2.460  0.139E-01  0.697E-02  0.697E-02
 -2.450  0.142E-01  0.710E-02  0.710E-02
 -2.440  0.144E-01  0.718E-02  0.718E-02
 -2.430  0.144E-01  0.721E-02  0.721E-02
 -2.420  0.144E-01  0.718E-02  0.718E-02
 -2.410  0.142E-01  0.709E-02  0.709E-02
 -2.400  0.139E-01  0.696E-02  0.696E-02
 -2.390  0.136E-01  0.679E-02  0.679E-02
 -2.380  0.132E-01  0.659E-02  0.659E-02
 -2.370  0.127E-01  0.635E-02  0.635E-02
 -2.360  0.122E-01  0.610E-02  0.610E-02
 -2.350  0.117E-01  0.584E-02  0.584E-02
 -2.340  0.112E-01  0.558E-02  0.558E-02
 -2.330  0.107E-01  0.533E-02  0.533E-02
 -2.320  0.102E-01  0.508E-02  0.508E-02
 -2.310  0.970E-02  0.485E-02  0.485E-02
 -2.300  0.927E-02  0.464E-02  0.464E-02
 -2.290  0.889E-02  0.445E-02  0.445E-02
 -2.280  0.856E-02  0.428E-02  0.428E-02
 -2.270  0.827E-02  0.414E-02  0.414E-02
 -2.260  0.803E-02  0.402E-02  0.402E-02
 -2.250  0.783E-02  0.391E-02  0.391E-02
 -2.240  0.766E-02  0.383E-02  0.383E-02
 -2.230  0.753E-02  0.376E-02  0.376E-02
 -2.220  0.742E-02  0.371E-02  0.371E-02
 -2.210  0.733E-02  0.367E-02  0.367E-02
 -2.200  0.726E-02  0.363E-02  0.363E-02
 -2.190  0.720E-02  0.360E-02  0.360E-02
 -2.180  0.714E-02  0.357E-02  0.357E-02
 -2.170  0.708E-02  0.354E-02  0.354E-02
 -2.160  0.702E-02  0.351E-02  0.351E-02
 -2.150  0.695E-02  0.348E-02  0.348E-02
 -2.140  0.688E-02  0.344E-02  0.344E-02
 -2.130  0.680E-02  0.340E-02  0.340E-02
 -2.120  0.671E-02  0.335E-02  0.335E-02
 -2.110  0.661E-02  0.330E-02  0.330E-02
 -2.100  0.650E-02  0.325E-02  0.325E-02
 -2.090  0.639E-02  0.320E-02  0.320E-02
 -2.080  0.628E-02  0.314E-02  0.314E-02
 -2.070  0.616E-02  0.308E-02  0.308E-02
 -2.060  0.603E-02  0.302E-02  0.302E-02
 -2.050  0.591E-02  0.295E-02  0.295E-02
 -2.040  0.578E-02  0.289E-02  0.289E-02
 -2.030  0.565E-02  0.283E-02  0.283E-02
 -2.020  0.552E-02  0.276E-02  0.276E-02
 -2.010  0.540E-02  0.270E-02  0.270E-02
 -2.000  0.527E-02  0.263E-02  0.263E-02
 -1.990  0.514E-02  0.257E-02  0.257E-02
 -1.980  0.501E-02  0.250E-02  0.250E-02
 -1.970  0.487E-02  0.244E-02  0.244E-02
 -1.960  0.473E-02  0.237E-02  0.237E-02
 -1.950  0.459E-02  0.229E-02  0.229E-02
 -1.940  0.443E-02  0.222E-02  0.222E-02
 -1.930  0.427E-02  0.213E-02  0.213E-02
 -1.920  0.410E-02  0.205E-02  0.205E-02
 -1.910  0.391E-02  0.196E-02  0.196E-02
 -1.900  0.372E-02  0.186E-02  0.186E-02
 -1.890  0.352E-02  0.176E-02  0.176E-02
 -1.880  0.331E-02  0.165E-02  0.165E-02
 -1.870  0.308E-02  0.154E-02  0.154E-02
 -1.860  0.286E-02  0.143E-02  0.143E-02
 -1.850  0.262E-02  0.131E-02  0.131E-02
 -1.840  0.239E-02  0.119E-02  0.119E-02
 -1.830  0.215E-02  0.108E-02  0.108E-02
 -1.820  0.192E-02  0.961E-03  0.961E-03
 -1.810  0.169E-02  0.847E-03  0.847E-03
 -1.800  0.147E-02  0.737E-03  0.737E-03
 -1.790  0.126E-02  0.632E-03  0.632E-03
 -1.780  0.107E-02  0.533E-03  0.533E-03
 -1.770  0.881E-03  0.441E-03  0.441E-03
 -1.760  0.711E-03  0.355E-03  0.355E-03
 -1.750  0.555E-03  0.278E-03  0.278E-03
 -1.740  0.415E-03  0.208E-03  0.208E-03
 -1.730  0.291E-03  0.146E-03  0.146E-03
 -1.720  0.183E-03  0.915E-04  0.915E-04
 -1.710  0.894E-04  0.447E-04  0.447E-04
 -1.700  0.101E-04  0.504E-05  0.504E-05
 -1.690 -0.559E-04 -0.279E-04 -0.279E-04
 -1.680 -0.109E-03 -0.547E-04 -0.547E-04
 -1.670 -0.152E-03 -0.758E-04 -0.758E-04
 -1.660 -0.184E-03 -0.918E-04 -0.918E-04
 -1.650 -0.207E-03 -0.103E-03 -0.103E-03
 -1.640 -0.221E-03 -0.111E-03 -0.111E-03
 -1.630 -0.229E-03 -0.115E-03 -0.115E-03
 -1.620 -0.231E-03 -0.116E-03 -0.116E-03
 -1.610 -0.228E-03 -0.114E-03 -0.114E-03
 -1.600 -0.221E-03 -0.110E-03 -0.110E-03
 -1.590 -0.210E-03 -0.105E-03 -0.105E-03
 -1.580 -0.197E-03 -0.984E-04 -0.984E-04
 -1.570 -0.182E-03 -0.910E-04 -0.910E-04
 -1.560 -0.166E-03 -0.830E-04 -0.830E-04
 -1.550 -0.150E-03 -0.748E-04 -0.748E-04
 -1.540 -0.133E-03 -0.665E-04 -0.665E-04
 -1.530 -0.117E-03 -0.584E-04 -0.584E-04
 -1.520 -0.102E-03 -0.508E-04 -0.508E-04
 -1.510 -0.871E-04 -0.436E-04 -0.436E-04
 -1.500 -0.739E-04 -0.370E-04 -0.370E-04
 -1.490 -0.620E-04 -0.310E-04 -0.310E-04
 -1.480 -0.514E-04 -0.257E-04 -0.257E-04
 -1.470 -0.421E-04 -0.211E-04 -0.211E-04
 -1.460 -0.341E-04 -0.171E-04 -0.171E-04
 -1.450 -0.273E-04 -0.137E-04 -0.137E-04
 -1.440 -0.217E-04 -0.108E-04 -0.108E-04
 -1.430 -0.170E-04 -0.848E-05 -0.848E-05
 -1.420 -0.131E-04 -0.657E-05 -0.657E-05
 -1.410 -0.101E-04 -0.503E-05 -0.503E-05
 -1.400 -0.761E-05 -0.380E-05 -0.380E-05
 -1.390 -0.569E-05 -0.285E-05 -0.285E-05
 -1.380 -0.421E-05 -0.211E-05 -0.211E-05
 -1.370 -0.308E-05 -0.154E-05 -0.154E-05
 -1.360 -0.223E-05 -0.112E-05 -0.112E-05
 -1.350 -0.160E-05 -0.798E-06 -0.798E-06
 -1.340 -0.113E-05 -0.565E-06 -0.565E-06
 -1.330 -0.790E-06 -0.395E-06 -0.395E-06
 -1.320 -0.546E-06 -0.273E-06 -0.273E-06
 -1.310 -0.374E-06 -0.187E-06 -0.187E-06
 -1.300 -0.253E-06 -0.126E-06 -0.126E-06
 -1.290 -0.169E-06 -0.846E-07 -0.846E-07
 -1.280 -0.112E-06 -0.560E-07 -0.560E-07
 -1.270 -0.732E-07 -0.366E-07 -0.366E-07
 -1.260 -0.474E-07 -0.237E-07 -0.237E-07
 -1.250 -0.303E-07 -0.152E-07 -0.152E-07
 -1.240 -0.192E-07 -0.959E-08 -0.959E-08
 -1.230 -0.120E-07 -0.600E-08 -0.600E-08
 -1.220 -0.742E-08 -0.371E-08 -0.371E-08
 -1.210 -0.454E-08 -0.227E-08 -0.227E-08
 -1.200 -0.275E-08 -0.137E-08 -0.137E-08
 -1.190 -0.165E-08 -0.823E-09 -0.823E-09
 -1.180 -0.974E-09 -0.487E-09 -0.487E-09
 -1.170 -0.569E-09 -0.285E-09 -0.285E-09
 -1.160 -0.330E-09 -0.165E-09 -0.165E-09
 -1.150 -0.188E-09 -0.940E-10 -0.940E-10
 -1.140 -0.106E-09 -0.528E-10 -0.528E-10
 -1.130 -0.580E-10 -0.290E-10 -0.290E-10
 -1.120 -0.311E-10 -0.156E-10 -0.156E-10
 -1.110 -0.162E-10 -0.808E-11 -0.808E-11
 -1.100 -0.799E-11 -0.399E-11 -0.399E-11
 -1.090 -0.352E-11 -0.176E-11 -0.176E-11
 -1.080  0.000E+00  0.000E+00  0.000E+00
 -1.070  0.000E+00  0.000E+00  0.000E+00
 -1.060  0.000E+00  0.000E+00  0.000E+00
 -1.050  0.000E+00  0.000E+00  0.000E+00
 -1.040  0.000E+00  0.000E+00  0.000E+00
 -1.030  0.000E+00  0.000E+00  0.000E+00
 -1.020  0.000E+00  0.000E+00  0.000E+00
 -1.010  0.000E+00  0.000E+00  0.000E+00
 -1.000  0.000E+00  0.000E+00  0.000E+00
 -0.990  0.000E+00  0.000E+00  0.000E+00
 -0.980  0.000E+00  0.000E+00  0.000E+00
 -0.970  0.000E+00  0.000E+00  0.000E+00
 -0.960  0.000E+00  0.000E+00  0.000E+00
 -0.950  0.000E+00  0.000E+00  0.000E+00
 -0.940  0.000E+00  0.000E+00  0.000E+00
 -0.930  0.000E+00  0.000E+00  0.000E+00
 -0.920  0.000E+00  0.000E+00  0.000E+00
 -0.910  0.000E+00  0.000E+00  0.000E+00
 -0.900  0.000E+00  0.000E+00  0.000E+00
 -0.890  0.000E+00  0.000E+00  0.000E+00
 -0.880  0.000E+00  0.000E+00  0.000E+00
 -0.870  0.000E+00  0.000E+00  0.000E+00
 -0.860  0.000E+00  0.000E+00  0.000E+00
 -0.850  0.000E+00  0.000E+00  0.000E+00
 -0.840  0.000E+00  0.000E+00  0.000E+00
 -0.830  0.000E+00  0.000E+00  0.000E+00
 -0.820  0.000E+00  0.000E+00  0.000E+00
 -0.810  0.000E+00  0.000E+00  0.000E+00
 -0.800  0.000E+00  0.000E+00  0.000E+00
 -0.790  0.000E+00  0.000E+00  0.000E+00
 -0.780  0.000E+00  0.000E+00  0.000E+00
 -0.770  0.000E+00  0.000E+00  0.000E+00
 -0.760  0.000E+00  0.000E+00  0.000E+00
 -0.750  0.000E+00  0.000E+00  0.000E+00
 -0.740  0.000E+00  0.000E+00  0.000E+00
 -0.730  0.000E+00  0.000E+00  0.000E+00
 -0.720  0.000E+00  0.000E+00  0.000E+00
 -0.710  0.000E+00  0.000E+00  0.000E+00
 -0.700  0.000E+00  0.000E+00  0.000E+00
 -0.690  0.000E+00  0.000E+00  0.000E+00
 -0.680  0.000E+00  0.000E+00  0.000E+00
 -0.670  0.000E+00  0.000E+00  0.000E+00
 -0.660  0.000E+00  0.000E+00  0.000E+00
 -0.650  0.000E+00  0.000E+00  0.000E+00
 -0.640  0.000E+00  0.000E+00  0.000E+00
 -0.630  0.000E+00  0.000E+00  0.000E+00
 -0.620  0.000E+00  0.000E+00  0.000E+00
 -0.610  0.000E+00  0.000E+00  0.000E+00
 -0.600  0.000E+00  0.000E+00  0.000E+00
 -0.590  0.000E+00  0.000E+00  0.000E+00
 -0.580  0.000E+00  0.000E+00  0.000E+00
 -0.570  0.000E+00  0.000E+00  0.000E+00
 -0.560  0.000E+00  0.000E+00  0.000E+00
 -0.550  0.502E-15  0.251E-15  0.251E-15
 -0.540  0.149E-14  0.747E-15  0.747E-15
 -0.530  0.371E-14  0.186E-14  0.186E-14
 -0.520  0.851E-14  0.425E-14  0.425E-14
 -0.510  0.192E-13  0.958E-14  0.958E-14
 -0.500  0.425E-13  0.212E-13  0.212E-13
 -0.490  0.931E-13  0.465E-13  0.465E-13
 -0.480  0.201E-12  0.101E-12  0.101E-12
 -0.470  0.431E-12  0.216E-12  0.216E-12
 -0.460  0.914E-12  0.457E-12  0.457E-12
 -0.450  0.192E-11  0.958E-12  0.958E-12
 -0.440  0.397E-11  0.198E-11  0.198E-11
 -0.430  0.814E-11  0.407E-11  0.407E-11
 -0.420  0.165E-10  0.825E-11  0.825E-11
 -0.410  0.331E-10  0.166E-10  0.166E-10
 -0.400  0.657E-10  0.328E-10  0.328E-10
 -0.390  0.129E-09  0.645E-10  0.645E-10
 -0.380  0.250E-09  0.125E-09  0.125E-09
 -0.370  0.481E-09  0.240E-09  0.240E-09
 -0.360  0.913E-09  0.457E-09  0.457E-09
 -0.350  0.172E-08  0.858E-09  0.858E-09
 -0.340  0.319E-08  0.160E-08  0.160E-08
 -0.330  0.587E-08  0.293E-08  0.293E-08
 -0.320  0.107E-07  0.534E-08  0.534E-08
 -0.310  0.192E-07  0.960E-08  0.960E-08
 -0.300  0.342E-07  0.171E-07  0.171E-07
 -0.290  0.602E-07  0.301E-07  0.301E-07
 -0.280  0.105E-06  0.524E-07  0.524E-07
 -0.270  0.180E-06  0.902E-07  0.902E-07
 -0.260  0.307E-06  0.154E-06  0.154E-06
 -0.250  0.518E-06  0.259E-06  0.259E-06
 -0.240  0.864E-06  0.432E-06  0.432E-06
 -0.230  0.142E-05  0.712E-06  0.712E-06
 -0.220  0.232E-05  0.116E-05  0.116E-05
 -0.210  0.375E-05  0.187E-05  0.187E-05
 -0.200  0.598E-05  0.299E-05  0.299E-05
 -0.190  0.945E-05  0.472E-05  0.472E-05
 -0.180  0.148E-04  0.738E-05  0.738E-05
 -0.170  0.228E-04  0.114E-04  0.114E-04
 -0.160  0.348E-04  0.174E-04  0.174E-04
 -0.150  0.526E-04  0.263E-04  0.263E-04
 -0.140  0.786E-04  0.393E-04  0.393E-04
 -0.130  0.116E-03  0.581E-04  0.581E-04
 -0.120  0.170E-03  0.850E-04  0.850E-04
 -0.110  0.246E-03  0.123E-03  0.123E-03
 -0.100  0.352E-03  0.176E-03  0.176E-03
 -0.090  0.498E-03  0.249E-03  0.249E-03
 -0.080  0.697E-03  0.349E-03  0.349E-03
 -0.070  0.966E-03  0.483E-03  0.483E-03
 -0.060  0.132E-02  0.661E-03  0.661E-03
 -0.050  0.179E-02  0.896E-03  0.896E-03
 -0.040  0.240E-02  0.120E-02  0.120E-02
 -0.030  0.318E-02  0.159E-02  0.159E-02
 -0.020  0.418E-02  0.209E-02  0.209E-02
 -0.010  0.542E-02  0.271E-02  0.271E-02
  0.000  0.695E-02  0.348E-02  0.348E-02
  0.010  0.882E-02  0.441E-02  0.441E-02
  0.020  0.111E-01  0.554E-02  0.554E-02
  0.030  0.138E-01  0.688E-02  0.688E-02
  0.040  0.169E-01  0.845E-02  0.845E-02
  0.050  0.206E-01  0.103E-01  0.103E-01
  0.060  0.247E-01  0.124E-01  0.124E-01
  0.070  0.294E-01  0.147E-01  0.147E-01
  0.080  0.347E-01  0.173E-01  0.173E-01
  0.090  0.404E-01  0.202E-01  0.202E-01
  0.100  0.467E-01  0.233E-01  0.233E-01
  0.110  0.533E-01  0.267E-01  0.267E-01
  0.120  0.603E-01  0.302E-01  0.302E-01
  0.130  0.676E-01  0.338E-01  0.338E-01
  0.140  0.751E-01  0.376E-01  0.376E-01
  0.150  0.827E-01  0.413E-01  0.413E-01
  0.160  0.902E-01  0.451E-01  0.451E-01
  0.170  0.977E-01  0.489E-01  0.489E-01
  0.180  0.105E+00  0.525E-01  0.525E-01
  0.190  0.112E+00  0.561E-01  0.561E-01
  0.200  0.119E+00  0.595E-01  0.595E-01
  0.210  0.126E+00  0.629E-01  0.629E-01
  0.220  0.132E+00  0.662E-01  0.662E-01
  0.230  0.139E+00  0.694E-01  0.694E-01
  0.240  0.145E+00  0.726E-01  0.726E-01
  0.250  0.152E+00  0.758E-01  0.758E-01
  0.260  0.158E+00  0.791E-01  0.791E-01
  0.270  0.165E+00  0.825E-01  0.825E-01
  0.280  0.172E+00  0.861E-01  0.861E-01
  0.290  0.180E+00  0.899E-01  0.899E-01
  0.300  0.188E+00  0.939E-01  0.939E-01
  0.310  0.196E+00  0.981E-01  0.981E-01
  0.320  0.205E+00  0.102E+00  0.102E+00
  0.330  0.214E+00  0.107E+00  0.107E+00
  0.340  0.223E+00  0.111E+00  0.111E+00
  0.350  0.231E+00  0.116E+00  0.116E+00
  0.360  0.239E+00  0.120E+00  0.120E+00
  0.370  0.247E+00  0.123E+00  0.123E+00
  0.380  0.253E+00  0.126E+00  0.126E+00
  0.390  0.258E+00  0.129E+00  0.129E+00
  0.400  0.262E+00  0.131E+00  0.131E+00
  0.410  0.264E+00  0.132E+00  0.132E+00
  0.420  0.265E+00  0.132E+00  0.132E+00
  0.430  0.263E+00  0.132E+00  0.132E+00
  0.440  0.261E+00  0.130E+00  0.130E+00
  0.450  0.256E+00  0.128E+00  0.128E+00
  0.460  0.250E+00  0.125E+00  0.125E+00
  0.470  0.243E+00  0.122E+00  0.122E+00
  0.480  0.235E+00  0.118E+00  0.118E+00
  0.490  0.226E+00  0.113E+00  0.113E+00
  0.500  0.217E+00  0.109E+00  0.109E+00
  0.510  0.208E+00  0.104E+00  0.104E+00
  0.520  0.198E+00  0.991E-01  0.991E-01
  0.530  0.189E+00  0.945E-01  0.945E-01
  0.540  0.180E+00  0.901E-01  0.901E-01
  0.550  0.172E+00  0.860E-01  0.860E-01
  0.560  0.165E+00  0.823E-01  0.823E-01
  0.570  0.158E+00  0.789E-01  0.789E-01
  0.580  0.152E+00  0.759E-01  0.759E-01
  0.590  0.146E+00  0.732E-01  0.732E-01
  0.600  0.142E+00  0.710E-01  0.710E-01
  0.610  0.138E+00  0.691E-01  0.691E-01
  0.620  0.135E+00  0.675E-01  0.675E-01
  0.630  0.132E+00  0.662E-01  0.662E-01
  0.640  0.130E+00  0.651E-01  0.651E-01
  0.650  0.128E+00  0.642E-01  0.642E-01
  0.660  0.127E+00  0.635E-01  0.635E-01
  0.670  0.126E+00  0.630E-01  0.630E-01
  0.680  0.125E+00  0.626E-01  0.626E-01
  0.690  0.124E+00  0.622E-01  0.622E-01
  0.700  0.124E+00  0.620E-01  0.620E-01
  0.710  0.124E+00  0.618E-01  0.618E-01
  0.720  0.123E+00  0.617E-01  0.617E-01
  0.730  0.123E+00  0.616E-01  0.616E-01
  0.740  0.123E+00  0.615E-01  0.615E-01
  0.750  0.123E+00  0.616E-01  0.616E-01
  0.760  0.123E+00  0.616E-01  0.616E-01
  0.770  0.124E+00  0.618E-01  0.618E-01
  0.780  0.124E+00  0.620E-01  0.620E-01
  0.790  0.124E+00  0.622E-01  0.622E-01
  0.800  0.125E+00  0.625E-01  0.625E-01
  0.810  0.126E+00  0.629E-01  0.629E-01
  0.820  0.127E+00  0.634E-01  0.634E-01
  0.830  0.128E+00  0.639E-01  0.639E-01
  0.840  0.129E+00  0.644E-01  0.644E-01
  0.850  0.130E+00  0.651E-01  0.651E-01
  0.860  0.131E+00  0.657E-01  0.657E-01
  0.870  0.133E+00  0.664E-01  0.664E-01
  0.880  0.134E+00  0.671E-01  0.671E-01
  0.890  0.136E+00  0.678E-01  0.678E-01
  0.900  0.137E+00  0.684E-01  0.684E-01
  0.910  0.138E+00  0.689E-01  0.689E-01
  0.920  0.139E+00  0.694E-01  0.694E-01
  0.930  0.139E+00  0.696E-01  0.696E-01
  0.940  0.139E+00  0.697E-01  0.697E-01
  0.950  0.139E+00  0.695E-01  0.695E-01
  0.960  0.138E+00  0.691E-01  0.691E-01
  0.970  0.137E+00  0.684E-01  0.684E-01
  0.980  0.135E+00  0.673E-01  0.673E-01
  0.990  0.132E+00  0.659E-01  0.659E-01
  1.000  0.128E+00  0.642E-01  0.642E-01
  1.010  0.124E+00  0.621E-01  0.621E-01
  1.020  0.119E+00  0.597E-01  0.597E-01
  1.030  0.114E+00  0.570E-01  0.570E-01
  1.040  0.108E+00  0.540E-01  0.540E-01
  1.050  0.102E+00  0.508E-01  0.508E-01
  1.060  0.950E-01  0.475E-01  0.475E-01
  1.070  0.882E-01  0.441E-01  0.441E-01
  1.080  0.813E-01  0.406E-01  0.406E-01
  1.090  0.744E-01  0.372E-01  0.372E-01
  1.100  0.678E-01  0.339E-01  0.339E-01
  1.110  0.615E-01  0.307E-01  0.307E-01
  1.120  0.555E-01  0.278E-01  0.278E-01
  1.130  0.500E-01  0.250E-01  0.250E-01
  1.140  0.451E-01  0.225E-01  0.225E-01
  1.150  0.407E-01  0.203E-01  0.203E-01
  1.160  0.368E-01  0.184E-01  0.184E-01
  1.170  0.336E-01  0.168E-01  0.168E-01
  1.180  0.308E-01  0.154E-01  0.154E-01
  1.190  0.286E-01  0.143E-01  0.143E-01
  1.200  0.269E-01  0.134E-01  0.134E-01
  1.210  0.255E-01  0.127E-01  0.127E-01
  1.220  0.244E-01  0.122E-01  0.122E-01
  1.230  0.237E-01  0.119E-01  0.119E-01
  1.240  0.232E-01  0.116E-01  0.116E-01
  1.250  0.228E-01  0.114E-01  0.114E-01
  1.260  0.226E-01  0.113E-01  0.113E-01
  1.270  0.225E-01  0.112E-01  0.112E-01
  1.280  0.224E-01  0.112E-01  0.112E-01
  1.290  0.223E-01  0.112E-01  0.112E-01
  1.300  0.223E-01  0.111E-01  0.111E-01
  1.310  0.222E-01  0.111E-01  0.111E-01
  1.320  0.221E-01  0.111E-01  0.111E-01
  1.330  0.220E-01  0.110E-01  0.110E-01
  1.340  0.219E-01  0.110E-01  0.110E-01
  1.350  0.218E-01  0.109E-01  0.109E-01
  1.360  0.217E-01  0.108E-01  0.108E-01
  1.370  0.215E-01  0.107E-01  0.107E-01
  1.380  0.213E-01  0.107E-01  0.107E-01
  1.390  0.211E-01  0.106E-01  0.106E-01
  1.400  0.209E-01  0.105E-01  0.105E-01
  1.410  0.207E-01  0.104E-01  0.104E-01
  1.420  0.205E-01  0.103E-01  0.103E-01
  1.430  0.203E-01  0.102E-01  0.102E-01
  1.440  0.201E-01  0.101E-01  0.101E-01
  1.450  0.199E-01  0.996E-02  0.996E-02
  1.460  0.197E-01  0.986E-02  0.986E-02
  1.470  0.195E-01  0.977E-02  0.977E-02
  1.480  0.194E-01  0.968E-02  0.968E-02
  1.490  0.192E-01  0.959E-02  0.959E-02
  1.500  0.190E-01  0.951E-02  0.951E-02
  1.510  0.188E-01  0.942E-02  0.942E-02
  1.520  0.187E-01  0.934E-02  0.934E-02
  1.530  0.185E-01  0.926E-02  0.926E-02
  1.540  0.184E-01  0.919E-02  0.919E-02
  1.550  0.182E-01  0.912E-02  0.912E-02
  1.560  0.181E-01  0.904E-02  0.904E-02
  1.570  0.180E-01  0.898E-02  0.898E-02
  1.580  0.178E-01  0.891E-02  0.891E-02
  1.590  0.177E-01  0.884E-02  0.884E-02
  1.600  0.176E-01  0.878E-02  0.878E-02
  1.610  0.174E-01  0.872E-02  0.872E-02
  1.620  0.173E-01  0.866E-02  0.866E-02
  1.630  0.172E-01  0.861E-02  0.861E-02
  1.640  0.171E-01  0.855E-02  0.855E-02
  1.650  0.170E-01  0.850E-02  0.850E-02
  1.660  0.169E-01  0.845E-02  0.845E-02
  1.670  0.168E-01  0.840E-02  0.840E-02
  1.680  0.167E-01  0.835E-02  0.835E-02
  1.690  0.166E-01  0.830E-02  0.830E-02
  1.700  0.165E-01  0.825E-02  0.825E-02
  1.710  0.164E-01  0.821E-02  0.821E-02
  1.720  0.163E-01  0.817E-02  0.817E-02
  1.730  0.163E-01  0.813E-02  0.813E-02
  1.740  0.162E-01  0.809E-02  0.809E-02
  1.750  0.161E-01  0.805E-02  0.805E-02
  1.760  0.160E-01  0.801E-02  0.801E-02
  1.770  0.159E-01  0.797E-02  0.797E-02
  1.780  0.159E-01  0.794E-02  0.794E-02
  1.790  0.158E-01  0.790E-02  0.790E-02
  1.800  0.157E-01  0.787E-02  0.787E-02
  1.810  0.157E-01  0.784E-02  0.784E-02
  1.820  0.156E-01  0.781E-02  0.781E-02
  1.830  0.156E-01  0.778E-02  0.778E-02
  1.840  0.155E-01  0.775E-02  0.775E-02
  1.850  0.155E-01  0.773E-02  0.773E-02
  1.860  0.154E-01  0.770E-02  0.770E-02
  1.870  0.153E-01  0.767E-02  0.767E-02
  1.880  0.153E-01  0.765E-02  0.765E-02
  1.890  0.153E-01  0.763E-02  0.763E-02
  1.900  0.152E-01  0.760E-02  0.760E-02
  1.910  0.152E-01  0.758E-02  0.758E-02
  1.920  0.151E-01  0.756E-02  0.756E-02
  1.930  0.151E-01  0.754E-02  0.754E-02
  1.940  0.150E-01  0.752E-02  0.752E-02
  1.950  0.150E-01  0.751E-02  0.751E-02
  1.960  0.150E-01  0.749E-02  0.749E-02
  1.970  0.149E-01  0.747E-02  0.747E-02
  1.980  0.149E-01  0.746E-02  0.746E-02
  1.990  0.149E-01  0.744E-02  0.744E-02
  2.000  0.149E-01  0.743E-02  0.743E-02
  2.010  0.148E-01  0.742E-02  0.742E-02
  2.020  0.148E-01  0.741E-02  0.741E-02
  2.030  0.148E-01  0.739E-02  0.739E-02
  2.040  0.148E-01  0.738E-02  0.738E-02
  2.050  0.148E-01  0.738E-02  0.738E-02
  2.060  0.147E-01  0.737E-02  0.737E-02
  2.070  0.147E-01  0.736E-02  0.736E-02
  2.080  0.147E-01  0.735E-02  0.735E-02
  2.090  0.147E-01  0.735E-02  0.735E-02
  2.100  0.147E-01  0.734E-02  0.734E-02
  2.110  0.147E-01  0.734E-02  0.734E-02
  2.120  0.147E-01  0.733E-02  0.733E-02
  2.130  0.147E-01  0.733E-02  0.733E-02
  2.140  0.147E-01  0.733E-02  0.733E-02
  2.150  0.147E-01  0.733E-02  0.733E-02
  2.160  0.147E-01  0.733E-02  0.733E-02
  2.170  0.147E-01  0.733E-02  0.733E-02
  2.180  0.147E-01  0.733E-02  0.733E-02
  2.190  0.147E-01  0.733E-02  0.733E-02
  2.200  0.147E-01  0.733E-02  0.733E-02
  2.210  0.147E-01  0.734E-02  0.734E-02
  2.220  0.147E-01  0.734E-02  0.734E-02
  2.230  0.147E-01  0.735E-02  0.735E-02
  2.240  0.147E-01  0.736E-02  0.736E-02
  2.250  0.147E-01  0.736E-02  0.736E-02
  2.260  0.147E-01  0.737E-02  0.737E-02
  2.270  0.148E-01  0.738E-02  0.738E-02
  2.280  0.148E-01  0.739E-02  0.739E-02
  2.290  0.148E-01  0.740E-02  0.740E-02
  2.300  0.148E-01  0.742E-02  0.742E-02
  2.310  0.149E-01  0.743E-02  0.743E-02
  2.320  0.149E-01  0.744E-02  0.744E-02
  2.330  0.149E-01  0.746E-02  0.746E-02
  2.340  0.149E-01  0.747E-02  0.747E-02
  2.350  0.150E-01  0.749E-02  0.749E-02
  2.360  0.150E-01  0.750E-02  0.750E-02
  2.370  0.150E-01  0.751E-02  0.751E-02
  2.380  0.151E-01  0.753E-02  0.753E-02
  2.390  0.151E-01  0.754E-02  0.754E-02
  2.400  0.151E-01  0.755E-02  0.755E-02
  2.410  0.151E-01  0.755E-02  0.755E-02
  2.420  0.151E-01  0.755E-02  0.755E-02
  2.430  0.151E-01  0.754E-02  0.754E-02
  2.440  0.150E-01  0.752E-02  0.752E-02
  2.450  0.150E-01  0.750E-02  0.750E-02
  2.460  0.149E-01  0.746E-02  0.746E-02
  2.470  0.148E-01  0.740E-02  0.740E-02
  2.480  0.147E-01  0.733E-02  0.733E-02
  2.490  0.145E-01  0.724E-02  0.724E-02
  2.500  0.142E-01  0.712E-02  0.712E-02
  2.510  0.140E-01  0.698E-02  0.698E-02
  2.520  0.136E-01  0.681E-02  0.681E-02
  2.530  0.132E-01  0.661E-02  0.661E-02
  2.540  0.127E-01  0.637E-02  0.637E-02
  2.550  0.122E-01  0.611E-02  0.611E-02
  2.560  0.116E-01  0.581E-02  0.581E-02
  2.570  0.110E-01  0.548E-02  0.548E-02
  2.580  0.102E-01  0.512E-02  0.512E-02
  2.590  0.948E-02  0.474E-02  0.474E-02
  2.600  0.866E-02  0.433E-02  0.433E-02
  2.610  0.782E-02  0.391E-02  0.391E-02
  2.620  0.695E-02  0.347E-02  0.347E-02
  2.630  0.607E-02  0.304E-02  0.304E-02
  2.640  0.519E-02  0.260E-02  0.260E-02
  2.650  0.434E-02  0.217E-02  0.217E-02
  2.660  0.351E-02  0.176E-02  0.176E-02
  2.670  0.273E-02  0.136E-02  0.136E-02
  2.680  0.200E-02  0.999E-03  0.999E-03
  2.690  0.133E-02  0.667E-03  0.667E-03
  2.700  0.741E-03  0.370E-03  0.370E-03
  2.710  0.224E-03  0.112E-03  0.112E-03
  2.720 -0.213E-03 -0.106E-03 -0.106E-03
  2.730 -0.571E-03 -0.286E-03 -0.286E-03
  2.740 -0.852E-03 -0.426E-03 -0.426E-03
  2.750 -0.106E-02 -0.530E-03 -0.530E-03
  2.760 -0.120E-02 -0.601E-03 -0.601E-03
  2.770 -0.128E-02 -0.642E-03 -0.642E-03
  2.780 -0.131E-02 -0.657E-03 -0.657E-03
  2.790 -0.130E-02 -0.650E-03 -0.650E-03
  2.800 -0.125E-02 -0.627E-03 -0.627E-03
  2.810 -0.118E-02 -0.590E-03 -0.590E-03
  2.820 -0.109E-02 -0.544E-03 -0.544E-03
  2.830 -0.986E-03 -0.493E-03 -0.493E-03
  2.840 -0.877E-03 -0.439E-03 -0.439E-03
  2.850 -0.768E-03 -0.384E-03 -0.384E-03
  2.860 -0.663E-03 -0.331E-03 -0.331E-03
  2.870 -0.564E-03 -0.282E-03 -0.282E-03
  2.880 -0.473E-03 -0.236E-03 -0.236E-03
  2.890 -0.391E-03 -0.196E-03 -0.196E-03
  2.900 -0.319E-03 -0.160E-03 -0.160E-03
  2.910 -0.257E-03 -0.129E-03 -0.129E-03
  2.920 -0.205E-03 -0.102E-03 -0.102E-03
  2.930 -0.161E-03 -0.806E-04 -0.806E-04
  2.940 -0.125E-03 -0.626E-04 -0.626E-04
  2.950 -0.961E-04 -0.480E-04 -0.480E-04
  2.960 -0.729E-04 -0.364E-04 -0.364E-04
  2.970 -0.546E-04 -0.273E-04 -0.273E-04
  2.980 -0.405E-04 -0.202E-04 -0.202E-04
  2.990 -0.296E-04 -0.148E-04 -0.148E-04
  3.000 -0.215E-04 -0.107E-04 -0.107E-04
  3.010 -0.154E-04 -0.768E-05 -0.768E-05
  3.020 -0.109E-04 -0.543E-05 -0.543E-05
  3.030 -0.760E-05 -0.380E-05 -0.380E-05
  3.040 -0.526E-05 -0.263E-05 -0.263E-05
  3.050 -0.360E-05 -0.180E-05 -0.180E-05
  3.060 -0.243E-05 -0.122E-05 -0.122E-05
  3.070 -0.163E-05 -0.814E-06 -0.814E-06
  3.080 -0.108E-05 -0.539E-06 -0.539E-06
  3.090 -0.705E-06 -0.352E-06 -0.352E-06
  3.100 -0.456E-06 -0.228E-06 -0.228E-06
  3.110 -0.292E-06 -0.146E-06 -0.146E-06
  3.120 -0.185E-06 -0.924E-07 -0.924E-07
  3.130 -0.116E-06 -0.578E-07 -0.578E-07
  3.140 -0.716E-07 -0.358E-07 -0.358E-07
  3.150 -0.439E-07 -0.219E-07 -0.219E-07
  3.160 -0.266E-07 -0.133E-07 -0.133E-07
  3.170 -0.159E-07 -0.795E-08 -0.795E-08
  3.180 -0.943E-08 -0.472E-08 -0.472E-08
  3.190 -0.551E-08 -0.275E-08 -0.275E-08
  3.200 -0.320E-08 -0.160E-08 -0.160E-08
  3.210 -0.182E-08 -0.911E-09 -0.911E-09
  3.220 -0.103E-08 -0.517E-09 -0.517E-09
  3.230 -0.562E-09 -0.281E-09 -0.281E-09
  3.240 -0.312E-09 -0.156E-09 -0.156E-09
  3.250 -0.159E-09 -0.794E-10 -0.794E-10
  3.260 -0.533E-10 -0.267E-10 -0.267E-10
  3.270 -0.212E-10 -0.106E-10 -0.106E-10
  3.280  0.454E-11  0.227E-11  0.227E-11
  3.290  0.435E-10  0.218E-10  0.218E-10
  3.300  0.862E-10  0.431E-10  0.431E-10
  3.310  0.169E-09  0.845E-10  0.845E-10
  3.320  0.328E-09  0.164E-09  0.164E-09
  3.330  0.628E-09  0.314E-09  0.314E-09
  3.340  0.119E-08  0.596E-09  0.596E-09
  3.350  0.224E-08  0.112E-08  0.112E-08
  3.360  0.415E-08  0.208E-08  0.208E-08
  3.370  0.762E-08  0.381E-08  0.381E-08
  3.380  0.138E-07  0.692E-08  0.692E-08
  3.390  0.249E-07  0.124E-07  0.124E-07
  3.400  0.442E-07  0.221E-07  0.221E-07
  3.410  0.777E-07  0.388E-07  0.388E-07
  3.420  0.135E-06  0.676E-07  0.676E-07
  3.430  0.232E-06  0.116E-06  0.116E-06
  3.440  0.396E-06  0.198E-06  0.198E-06
  3.450  0.666E-06  0.333E-06  0.333E-06
  3.460  0.111E-05  0.554E-06  0.554E-06
  3.470  0.183E-05  0.913E-06  0.913E-06
  3.480  0.297E-05  0.149E-05  0.149E-05
  3.490  0.479E-05  0.240E-05  0.240E-05
  3.500  0.764E-05  0.382E-05  0.382E-05
  3.510  0.120E-04  0.602E-05  0.602E-05
  3.520  0.188E-04  0.940E-05  0.940E-05
  3.530  0.290E-04  0.145E-04  0.145E-04
  3.540  0.443E-04  0.221E-04  0.221E-04
  3.550  0.668E-04  0.334E-04  0.334E-04
  3.560  0.998E-04  0.499E-04  0.499E-04
  3.570  0.148E-03  0.738E-04  0.738E-04
  3.580  0.216E-03  0.108E-03  0.108E-03
  3.590  0.312E-03  0.156E-03  0.156E-03
  3.600  0.446E-03  0.223E-03  0.223E-03
  3.610  0.631E-03  0.315E-03  0.315E-03
  3.620  0.883E-03  0.441E-03  0.441E-03
  3.630  0.122E-02  0.611E-03  0.611E-03
  3.640  0.167E-02  0.837E-03  0.837E-03
  3.650  0.227E-02  0.113E-02  0.113E-02
  3.660  0.304E-02  0.152E-02  0.152E-02
  3.670  0.403E-02  0.202E-02  0.202E-02
  3.680  0.529E-02  0.265E-02  0.265E-02
  3.690  0.687E-02  0.343E-02  0.343E-02
  3.700  0.882E-02  0.441E-02  0.441E-02
  3.710  0.112E-01  0.560E-02  0.560E-02
  3.720  0.141E-01  0.704E-02  0.704E-02
  3.730  0.175E-01  0.876E-02  0.876E-02
  3.740  0.216E-01  0.108E-01  0.108E-01
  3.750  0.263E-01  0.131E-01  0.131E-01
  3.760  0.317E-01  0.158E-01  0.158E-01
  3.770  0.378E-01  0.189E-01  0.189E-01
  3.780  0.446E-01  0.223E-01  0.223E-01
  3.790  0.522E-01  0.261E-01  0.261E-01
  3.800  0.604E-01  0.302E-01  0.302E-01
  3.810  0.692E-01  0.346E-01  0.346E-01
  3.820  0.784E-01  0.392E-01  0.392E-01
  3.830  0.881E-01  0.440E-01  0.440E-01
  3.840  0.980E-01  0.490E-01  0.490E-01
  3.850  0.108E+00  0.540E-01  0.540E-01
  3.860  0.118E+00  0.590E-01  0.590E-01
  3.870  0.128E+00  0.638E-01  0.638E-01
  3.880  0.137E+00  0.684E-01  0.684E-01
  3.890  0.146E+00  0.728E-01  0.728E-01
  3.900  0.154E+00  0.768E-01  0.768E-01
  3.910  0.161E+00  0.805E-01  0.805E-01
  3.920  0.167E+00  0.837E-01  0.837E-01
  3.930  0.173E+00  0.865E-01  0.865E-01
  3.940  0.178E+00  0.889E-01  0.889E-01
  3.950  0.182E+00  0.909E-01  0.909E-01
  3.960  0.185E+00  0.926E-01  0.926E-01
  3.970  0.188E+00  0.941E-01  0.941E-01
  3.980  0.191E+00  0.954E-01  0.954E-01
  3.990  0.193E+00  0.967E-01  0.967E-01
  4.000  0.196E+00  0.981E-01  0.981E-01
  4.010  0.200E+00  0.998E-01  0.998E-01
  4.020  0.204E+00  0.102E+00  0.102E+00
  4.030  0.209E+00  0.104E+00  0.104E+00
  4.040  0.215E+00  0.107E+00  0.107E+00
  4.050  0.222E+00  0.111E+00  0.111E+00
  4.060  0.231E+00  0.116E+00  0.116E+00
  4.070  0.242E+00  0.121E+00  0.121E+00
  4.080  0.253E+00  0.127E+00  0.127E+00
  4.090  0.266E+00  0.133E+00  0.133E+00
  4.100  0.280E+00  0.140E+00  0.140E+00
  4.110  0.295E+00  0.148E+00  0.148E+00
  4.120  0.310E+00  0.155E+00  0.155E+00
  4.130  0.326E+00  0.163E+00  0.163E+00
  4.140  0.340E+00  0.170E+00  0.170E+00
  4.150  0.354E+00  0.177E+00  0.177E+00
  4.160  0.367E+00  0.183E+00  0.183E+00
  4.170  0.378E+00  0.189E+00  0.189E+00
  4.180  0.386E+00  0.193E+00  0.193E+00
  4.190  0.393E+00  0.196E+00  0.196E+00
  4.200  0.396E+00  0.198E+00  0.198E+00
  4.210  0.398E+00  0.199E+00  0.199E+00
  4.220  0.396E+00  0.198E+00  0.198E+00
  4.230  0.392E+00  0.196E+00  0.196E+00
  4.240  0.386E+00  0.193E+00  0.193E+00
  4.250  0.379E+00  0.189E+00  0.189E+00
  4.260  0.369E+00  0.185E+00  0.185E+00
  4.270  0.359E+00  0.179E+00  0.179E+00
  4.280  0.347E+00  0.174E+00  0.174E+00
  4.290  0.336E+00  0.168E+00  0.168E+00
  4.300  0.324E+00  0.162E+00  0.162E+00
  4.310  0.313E+00  0.156E+00  0.156E+00
  4.320  0.302E+00  0.151E+00  0.151E+00
  4.330  0.292E+00  0.146E+00  0.146E+00
  4.340  0.282E+00  0.141E+00  0.141E+00
  4.350  0.274E+00  0.137E+00  0.137E+00
  4.360  0.266E+00  0.133E+00  0.133E+00
  4.370  0.260E+00  0.130E+00  0.130E+00
  4.380  0.254E+00  0.127E+00  0.127E+00
  4.390  0.248E+00  0.124E+00  0.124E+00
  4.400  0.243E+00  0.122E+00  0.122E+00
  4.410  0.239E+00  0.120E+00  0.120E+00
  4.420  0.235E+00  0.118E+00  0.118E+00
  4.430  0.232E+00  0.116E+00  0.116E+00
  4.440  0.228E+00  0.114E+00  0.114E+00
  4.450  0.225E+00  0.112E+00  0.112E+00
  4.460  0.222E+00  0.111E+00  0.111E+00
  4.470  0.219E+00  0.110E+00  0.110E+00
  4.480  0.216E+00  0.108E+00  0.108E+00
  4.490  0.214E+00  0.107E+00  0.107E+00
  4.500  0.211E+00  0.106E+00  0.106E+00
  4.510  0.209E+00  0.105E+00  0.105E+00
  4.520  0.207E+00  0.103E+00  0.103E+00
  4.530  0.205E+00  0.102E+00  0.102E+00
  4.540  0.203E+00  0.101E+00  0.101E+00
  4.550  0.201E+00  0.101E+00  0.101E+00
  4.560  0.199E+00  0.997E-01  0.997E-01
  4.570  0.198E+00  0.989E-01  0.989E-01
  4.580  0.196E+00  0.982E-01  0.982E-01
  4.590  0.195E+00  0.976E-01  0.976E-01
  4.600  0.194E+00  0.969E-01  0.969E-01
  4.610  0.193E+00  0.963E-01  0.963E-01
  4.620  0.192E+00  0.958E-01  0.958E-01
  4.630  0.190E+00  0.952E-01  0.952E-01
  4.640  0.189E+00  0.947E-01  0.947E-01
  4.650  0.188E+00  0.942E-01  0.942E-01
  4.660  0.188E+00  0.938E-01  0.938E-01
  4.670  0.187E+00  0.933E-01  0.933E-01
  4.680  0.186E+00  0.929E-01  0.929E-01
  4.690  0.185E+00  0.924E-01  0.924E-01
  4.700  0.184E+00  0.920E-01  0.920E-01
  4.710  0.183E+00  0.916E-01  0.916E-01
  4.720  0.182E+00  0.912E-01  0.912E-01
  4.730  0.182E+00  0.909E-01  0.909E-01
  4.740  0.181E+00  0.905E-01  0.905E-01
  4.750  0.180E+00  0.901E-01  0.901E-01
  4.760  0.180E+00  0.898E-01  0.898E-01
  4.770  0.179E+00  0.895E-01  0.895E-01
  4.780  0.178E+00  0.891E-01  0.891E-01
  4.790  0.178E+00  0.888E-01  0.888E-01
  4.800  0.177E+00  0.886E-01  0.886E-01
  4.810  0.177E+00  0.883E-01  0.883E-01
  4.820  0.176E+00  0.880E-01  0.880E-01
  4.830  0.175E+00  0.877E-01  0.877E-01
  4.840  0.175E+00  0.875E-01  0.875E-01
  4.850  0.175E+00  0.873E-01  0.873E-01
  4.860  0.174E+00  0.870E-01  0.870E-01
  4.870  0.174E+00  0.868E-01  0.868E-01
  4.880  0.173E+00  0.866E-01  0.866E-01
  4.890  0.173E+00  0.864E-01  0.864E-01
  4.900  0.173E+00  0.863E-01  0.863E-01
  4.910  0.172E+00  0.861E-01  0.861E-01
  4.920  0.172E+00  0.859E-01  0.859E-01
  4.930  0.172E+00  0.858E-01  0.858E-01
  4.940  0.171E+00  0.856E-01  0.856E-01
  4.950  0.171E+00  0.855E-01  0.855E-01
  4.960  0.171E+00  0.854E-01  0.854E-01
  4.970  0.171E+00  0.853E-01  0.853E-01
  4.980  0.170E+00  0.852E-01  0.852E-01
  4.990  0.170E+00  0.851E-01  0.851E-01
  5.000  0.170E+00  0.851E-01  0.851E-01
  5.010  0.170E+00  0.850E-01  0.850E-01
  5.020  0.170E+00  0.850E-01  0.850E-01
  5.030  0.170E+00  0.849E-01  0.849E-01
  5.040  0.170E+00  0.849E-01  0.849E-01
  5.050  0.170E+00  0.849E-01  0.849E-01
  5.060  0.170E+00  0.849E-01  0.849E-01
  5.070  0.170E+00  0.849E-01  0.849E-01
  5.080  0.170E+00  0.850E-01  0.850E-01
  5.090  0.170E+00  0.850E-01  0.850E-01
  5.100  0.170E+00  0.851E-01  0.851E-01
  5.110  0.170E+00  0.851E-01  0.851E-01
  5.120  0.170E+00  0.852E-01  0.852E-01
  5.130  0.171E+00  0.853E-01  0.853E-01
  5.140  0.171E+00  0.854E-01  0.854E-01
  5.150  0.171E+00  0.855E-01  0.855E-01
  5.160  0.171E+00  0.857E-01  0.857E-01
  5.170  0.172E+00  0.858E-01  0.858E-01
  5.180  0.172E+00  0.860E-01  0.860E-01
  5.190  0.172E+00  0.862E-01  0.862E-01
  5.200  0.173E+00  0.864E-01  0.864E-01
  5.210  0.173E+00  0.866E-01  0.866E-01
  5.220  0.174E+00  0.869E-01  0.869E-01
  5.230  0.174E+00  0.871E-01  0.871E-01
  5.240  0.175E+00  0.874E-01  0.874E-01
  5.250  0.175E+00  0.877E-01  0.877E-01
  5.260  0.176E+00  0.880E-01  0.880E-01
  5.270  0.177E+00  0.883E-01  0.883E-01
  5.280  0.177E+00  0.887E-01  0.887E-01
  5.290  0.178E+00  0.890E-01  0.890E-01
  5.300  0.179E+00  0.894E-01  0.894E-01
  5.310  0.180E+00  0.899E-01  0.899E-01
  5.320  0.181E+00  0.903E-01  0.903E-01
  5.330  0.181E+00  0.907E-01  0.907E-01
  5.340  0.182E+00  0.912E-01  0.912E-01
  5.350  0.183E+00  0.917E-01  0.917E-01
  5.360  0.184E+00  0.922E-01  0.922E-01
  5.370  0.186E+00  0.928E-01  0.928E-01
  5.380  0.187E+00  0.933E-01  0.933E-01
  5.390  0.188E+00  0.939E-01  0.939E-01
  5.400  0.189E+00  0.945E-01  0.945E-01
  5.410  0.190E+00  0.951E-01  0.951E-01
  5.420  0.192E+00  0.958E-01  0.958E-01
  5.430  0.193E+00  0.964E-01  0.964E-01
  5.440  0.194E+00  0.971E-01  0.971E-01
  5.450  0.196E+00  0.978E-01  0.978E-01
  5.460  0.197E+00  0.985E-01  0.985E-01
  5.470  0.198E+00  0.992E-01  0.992E-01
  5.480  0.200E+00  0.999E-01  0.999E-01
  5.490  0.201E+00  0.101E+00  0.101E+00
  5.500  0.203E+00  0.101E+00  0.101E+00
  5.510  0.204E+00  0.102E+00  0.102E+00
  5.520  0.206E+00  0.103E+00  0.103E+00
  5.530  0.207E+00  0.103E+00  0.103E+00
  5.540  0.208E+00  0.104E+00  0.104E+00
  5.550  0.210E+00  0.105E+00  0.105E+00
  5.560  0.211E+00  0.106E+00  0.106E+00
  5.570  0.213E+00  0.106E+00  0.106E+00
  5.580  0.214E+00  0.107E+00  0.107E+00
  5.590  0.216E+00  0.108E+00  0.108E+00
  5.600  0.217E+00  0.109E+00  0.109E+00
  5.610  0.219E+00  0.109E+00  0.109E+00
  5.620  0.221E+00  0.110E+00  0.110E+00
  5.630  0.223E+00  0.111E+00  0.111E+00
  5.640  0.225E+00  0.112E+00  0.112E+00
  5.650  0.227E+00  0.114E+00  0.114E+00
  5.660  0.231E+00  0.115E+00  0.115E+00
  5.670  0.234E+00  0.117E+00  0.117E+00
  5.680  0.239E+00  0.119E+00  0.119E+00
  5.690  0.244E+00  0.122E+00  0.122E+00
  5.700  0.251E+00  0.125E+00  0.125E+00
  5.710  0.259E+00  0.129E+00  0.129E+00
  5.720  0.268E+00  0.134E+00  0.134E+00
  5.730  0.280E+00  0.140E+00  0.140E+00
  5.740  0.293E+00  0.146E+00  0.146E+00
  5.750  0.308E+00  0.154E+00  0.154E+00
  5.760  0.326E+00  0.163E+00  0.163E+00
  5.770  0.345E+00  0.173E+00  0.173E+00
  5.780  0.367E+00  0.184E+00  0.184E+00
  5.790  0.391E+00  0.196E+00  0.196E+00
  5.800  0.417E+00  0.209E+00  0.209E+00
  5.810  0.445E+00  0.222E+00  0.222E+00
  5.820  0.473E+00  0.237E+00  0.237E+00
  5.830  0.502E+00  0.251E+00  0.251E+00
  5.840  0.531E+00  0.266E+00  0.266E+00
  5.850  0.560E+00  0.280E+00  0.280E+00
  5.860  0.587E+00  0.293E+00  0.293E+00
  5.870  0.612E+00  0.306E+00  0.306E+00
  5.880  0.633E+00  0.317E+00  0.317E+00
  5.890  0.652E+00  0.326E+00  0.326E+00
  5.900  0.666E+00  0.333E+00  0.333E+00
  5.910  0.676E+00  0.338E+00  0.338E+00
  5.920  0.681E+00  0.340E+00  0.340E+00
  5.930  0.680E+00  0.340E+00  0.340E+00
  5.940  0.675E+00  0.338E+00  0.338E+00
  5.950  0.665E+00  0.333E+00  0.333E+00
  5.960  0.651E+00  0.325E+00  0.325E+00
  5.970  0.633E+00  0.316E+00  0.316E+00
  5.980  0.611E+00  0.306E+00  0.306E+00
  5.990  0.587E+00  0.294E+00  0.294E+00
  6.000  0.562E+00  0.281E+00  0.281E+00
  6.010  0.535E+00  0.267E+00  0.267E+00
  6.020  0.508E+00  0.254E+00  0.254E+00
  6.030  0.481E+00  0.241E+00  0.241E+00
  6.040  0.455E+00  0.228E+00  0.228E+00
  6.050  0.431E+00  0.215E+00  0.215E+00
  6.060  0.408E+00  0.204E+00  0.204E+00
  6.070  0.387E+00  0.194E+00  0.194E+00
  6.080  0.368E+00  0.184E+00  0.184E+00
  6.090  0.352E+00  0.176E+00  0.176E+00
  6.100  0.337E+00  0.169E+00  0.169E+00
  6.110  0.325E+00  0.162E+00  0.162E+00
  6.120  0.314E+00  0.157E+00  0.157E+00
  6.130  0.305E+00  0.153E+00  0.153E+00
  6.140  0.298E+00  0.149E+00  0.149E+00
  6.150  0.291E+00  0.146E+00  0.146E+00
  6.160  0.286E+00  0.143E+00  0.143E+00
  6.170  0.281E+00  0.141E+00  0.141E+00
  6.180  0.277E+00  0.139E+00  0.139E+00
  6.190  0.274E+00  0.137E+00  0.137E+00
  6.200  0.271E+00  0.136E+00  0.136E+00
  6.210  0.269E+00  0.135E+00  0.135E+00
  6.220  0.267E+00  0.134E+00  0.134E+00
  6.230  0.266E+00  0.133E+00  0.133E+00
  6.240  0.264E+00  0.132E+00  0.132E+00
  6.250  0.263E+00  0.132E+00  0.132E+00
  6.260  0.262E+00  0.131E+00  0.131E+00
  6.270  0.262E+00  0.131E+00  0.131E+00
  6.280  0.261E+00  0.131E+00  0.131E+00
  6.290  0.261E+00  0.130E+00  0.130E+00
  6.300  0.261E+00  0.130E+00  0.130E+00
  6.310  0.261E+00  0.130E+00  0.130E+00
  6.320  0.261E+00  0.130E+00  0.130E+00
  6.330  0.261E+00  0.130E+00  0.130E+00
  6.340  0.261E+00  0.130E+00  0.130E+00
  6.350  0.260E+00  0.130E+00  0.130E+00
  6.360  0.260E+00  0.130E+00  0.130E+00
  6.370  0.260E+00  0.130E+00  0.130E+00
  6.380  0.260E+00  0.130E+00  0.130E+00
  6.390  0.259E+00  0.130E+00  0.130E+00
  6.400  0.259E+00  0.129E+00  0.129E+00
  6.410  0.258E+00  0.129E+00  0.129E+00
  6.420  0.257E+00  0.129E+00  0.129E+00
  6.430  0.256E+00  0.128E+00  0.128E+00
  6.440  0.255E+00  0.128E+00  0.128E+00
  6.450  0.254E+00  0.127E+00  0.127E+00
  6.460  0.253E+00  0.127E+00  0.127E+00
  6.470  0.252E+00  0.126E+00  0.126E+00
  6.480  0.251E+00  0.125E+00  0.125E+00
  6.490  0.250E+00  0.125E+00  0.125E+00
  6.500  0.249E+00  0.124E+00  0.124E+00
  6.510  0.247E+00  0.124E+00  0.124E+00
  6.520  0.246E+00  0.123E+00  0.123E+00
  6.530  0.245E+00  0.123E+00  0.123E+00
  6.540  0.244E+00  0.122E+00  0.122E+00
  6.550  0.244E+00  0.122E+00  0.122E+00
  6.560  0.243E+00  0.121E+00  0.121E+00
  6.570  0.242E+00  0.121E+00  0.121E+00
  6.580  0.242E+00  0.121E+00  0.121E+00
  6.590  0.241E+00  0.121E+00  0.121E+00
  6.600  0.241E+00  0.120E+00  0.120E+00
  6.610  0.241E+00  0.120E+00  0.120E+00
  6.620  0.241E+00  0.120E+00  0.120E+00
  6.630  0.241E+00  0.120E+00  0.120E+00
  6.640  0.241E+00  0.121E+00  0.121E+00
  6.650  0.242E+00  0.121E+00  0.121E+00
  6.660  0.242E+00  0.121E+00  0.121E+00
  6.670  0.243E+00  0.121E+00  0.121E+00
  6.680  0.243E+00  0.122E+00  0.122E+00
  6.690  0.244E+00  0.122E+00  0.122E+00
  6.700  0.245E+00  0.122E+00  0.122E+00
  6.710  0.246E+00  0.123E+00  0.123E+00
  6.720  0.247E+00  0.123E+00  0.123E+00
  6.730  0.248E+00  0.124E+00  0.124E+00
  6.740  0.249E+00  0.124E+00  0.124E+00
  6.750  0.250E+00  0.125E+00  0.125E+00
  6.760  0.251E+00  0.125E+00  0.125E+00
  6.770  0.252E+00  0.126E+00  0.126E+00
  6.780  0.253E+00  0.127E+00  0.127E+00
  6.790  0.255E+00  0.127E+00  0.127E+00
  6.800  0.256E+00  0.128E+00  0.128E+00
  6.810  0.257E+00  0.129E+00  0.129E+00
  6.820  0.259E+00  0.129E+00  0.129E+00
  6.830  0.260E+00  0.130E+00  0.130E+00
  6.840  0.262E+00  0.131E+00  0.131E+00
  6.850  0.263E+00  0.132E+00  0.132E+00
  6.860  0.265E+00  0.133E+00  0.133E+00
  6.870  0.267E+00  0.133E+00  0.133E+00
  6.880  0.269E+00  0.134E+00  0.134E+00
  6.890  0.271E+00  0.135E+00  0.135E+00
  6.900  0.273E+00  0.136E+00  0.136E+00
  6.910  0.275E+00  0.137E+00  0.137E+00
  6.920  0.277E+00  0.138E+00  0.138E+00
  6.930  0.279E+00  0.140E+00  0.140E+00
  6.940  0.282E+00  0.141E+00  0.141E+00
  6.950  0.284E+00  0.142E+00  0.142E+00
  6.960  0.287E+00  0.143E+00  0.143E+00
  6.970  0.290E+00  0.145E+00  0.145E+00
  6.980  0.293E+00  0.146E+00  0.146E+00
  6.990  0.296E+00  0.148E+00  0.148E+00
  7.000  0.300E+00  0.150E+00  0.150E+00
  7.010  0.304E+00  0.152E+00  0.152E+00
  7.020  0.308E+00  0.154E+00  0.154E+00
  7.030  0.312E+00  0.156E+00  0.156E+00
  7.040  0.317E+00  0.159E+00  0.159E+00
  7.050  0.322E+00  0.161E+00  0.161E+00
  7.060  0.328E+00  0.164E+00  0.164E+00
  7.070  0.334E+00  0.167E+00  0.167E+00
  7.080  0.341E+00  0.170E+00  0.170E+00
  7.090  0.348E+00  0.174E+00  0.174E+00
  7.100  0.355E+00  0.178E+00  0.178E+00
  7.110  0.363E+00  0.182E+00  0.182E+00
  7.120  0.371E+00  0.186E+00  0.186E+00
  7.130  0.380E+00  0.190E+00  0.190E+00
  7.140  0.389E+00  0.194E+00  0.194E+00
  7.150  0.398E+00  0.199E+00  0.199E+00
  7.160  0.407E+00  0.203E+00  0.203E+00
  7.170  0.416E+00  0.208E+00  0.208E+00
  7.180  0.425E+00  0.212E+00  0.212E+00
  7.190  0.433E+00  0.216E+00  0.216E+00
  7.200  0.440E+00  0.220E+00  0.220E+00
  7.210  0.447E+00  0.223E+00  0.223E+00
  7.220  0.453E+00  0.226E+00  0.226E+00
  7.230  0.457E+00  0.229E+00  0.229E+00
  7.240  0.460E+00  0.230E+00  0.230E+00
  7.250  0.462E+00  0.231E+00  0.231E+00
  7.260  0.463E+00  0.232E+00  0.232E+00
  7.270  0.462E+00  0.231E+00  0.231E+00
  7.280  0.461E+00  0.230E+00  0.230E+00
  7.290  0.458E+00  0.229E+00  0.229E+00
  7.300  0.454E+00  0.227E+00  0.227E+00
  7.310  0.450E+00  0.225E+00  0.225E+00
  7.320  0.446E+00  0.223E+00  0.223E+00
  7.330  0.441E+00  0.221E+00  0.221E+00
  7.340  0.437E+00  0.219E+00  0.219E+00
  7.350  0.434E+00  0.217E+00  0.217E+00
  7.360  0.431E+00  0.215E+00  0.215E+00
  7.370  0.429E+00  0.214E+00  0.214E+00
  7.380  0.427E+00  0.214E+00  0.214E+00
  7.390  0.427E+00  0.213E+00  0.213E+00
  7.400  0.427E+00  0.213E+00  0.213E+00
  7.410  0.427E+00  0.214E+00  0.214E+00
  7.420  0.428E+00  0.214E+00  0.214E+00
  7.430  0.428E+00  0.214E+00  0.214E+00
  7.440  0.427E+00  0.214E+00  0.214E+00
  7.450  0.425E+00  0.213E+00  0.213E+00
  7.460  0.422E+00  0.211E+00  0.211E+00
  7.470  0.416E+00  0.208E+00  0.208E+00
  7.480  0.408E+00  0.204E+00  0.204E+00
  7.490  0.397E+00  0.199E+00  0.199E+00
  7.500  0.384E+00  0.192E+00  0.192E+00
  7.510  0.368E+00  0.184E+00  0.184E+00
  7.520  0.349E+00  0.174E+00  0.174E+00
  7.530  0.328E+00  0.164E+00  0.164E+00
  7.540  0.304E+00  0.152E+00  0.152E+00
  7.550  0.279E+00  0.139E+00  0.139E+00
  7.560  0.253E+00  0.126E+00  0.126E+00
  7.570  0.226E+00  0.113E+00  0.113E+00
  7.580  0.199E+00  0.993E-01  0.993E-01
  7.590  0.172E+00  0.861E-01  0.861E-01
  7.600  0.147E+00  0.735E-01  0.735E-01
  7.610  0.123E+00  0.616E-01  0.616E-01
  7.620  0.102E+00  0.508E-01  0.508E-01
  7.630  0.823E-01  0.411E-01  0.411E-01
  7.640  0.654E-01  0.327E-01  0.327E-01
  7.650  0.512E-01  0.256E-01  0.256E-01
  7.660  0.395E-01  0.198E-01  0.198E-01
  7.670  0.304E-01  0.152E-01  0.152E-01
  7.680  0.235E-01  0.118E-01  0.118E-01
  7.690  0.188E-01  0.940E-02  0.940E-02
  7.700  0.158E-01  0.792E-02  0.792E-02
  7.710  0.144E-01  0.720E-02  0.720E-02
  7.720  0.141E-01  0.706E-02  0.706E-02
  7.730  0.148E-01  0.738E-02  0.738E-02
  7.740  0.160E-01  0.800E-02  0.800E-02
  7.750  0.176E-01  0.880E-02  0.880E-02
  7.760  0.194E-01  0.969E-02  0.969E-02
  7.770  0.211E-01  0.106E-01  0.106E-01
  7.780  0.228E-01  0.114E-01  0.114E-01
  7.790  0.242E-01  0.121E-01  0.121E-01
  7.800  0.253E-01  0.126E-01  0.126E-01
  7.810  0.261E-01  0.131E-01  0.131E-01
  7.820  0.266E-01  0.133E-01  0.133E-01
  7.830  0.269E-01  0.134E-01  0.134E-01
  7.840  0.269E-01  0.134E-01  0.134E-01
  7.850  0.267E-01  0.133E-01  0.133E-01
  7.860  0.263E-01  0.132E-01  0.132E-01
  7.870  0.259E-01  0.130E-01  0.130E-01
  7.880  0.255E-01  0.127E-01  0.127E-01
  7.890  0.251E-01  0.125E-01  0.125E-01
  7.900  0.247E-01  0.124E-01  0.124E-01
  7.910  0.246E-01  0.123E-01  0.123E-01
  7.920  0.247E-01  0.123E-01  0.123E-01
  7.930  0.250E-01  0.125E-01  0.125E-01
  7.940  0.257E-01  0.129E-01  0.129E-01
  7.950  0.268E-01  0.134E-01  0.134E-01
  7.960  0.282E-01  0.141E-01  0.141E-01
  7.970  0.302E-01  0.151E-01  0.151E-01
  7.980  0.326E-01  0.163E-01  0.163E-01
  7.990  0.356E-01  0.178E-01  0.178E-01
  8.000  0.391E-01  0.196E-01  0.196E-01
  8.010  0.432E-01  0.216E-01  0.216E-01
  8.020  0.478E-01  0.239E-01  0.239E-01
  8.030  0.530E-01  0.265E-01  0.265E-01
  8.040  0.586E-01  0.293E-01  0.293E-01
  8.050  0.648E-01  0.324E-01  0.324E-01
  8.060  0.713E-01  0.356E-01  0.356E-01
  8.070  0.781E-01  0.390E-01  0.390E-01
  8.080  0.851E-01  0.425E-01  0.425E-01
  8.090  0.922E-01  0.461E-01  0.461E-01
  8.100  0.994E-01  0.497E-01  0.497E-01
  8.110  0.106E+00  0.532E-01  0.532E-01
  8.120  0.113E+00  0.566E-01  0.566E-01
  8.130  0.120E+00  0.599E-01  0.599E-01
  8.140  0.126E+00  0.629E-01  0.629E-01
  8.150  0.131E+00  0.657E-01  0.657E-01
  8.160  0.137E+00  0.683E-01  0.683E-01
  8.170  0.141E+00  0.705E-01  0.705E-01
  8.180  0.145E+00  0.724E-01  0.724E-01
  8.190  0.148E+00  0.740E-01  0.740E-01
  8.200  0.150E+00  0.752E-01  0.752E-01
  8.210  0.152E+00  0.761E-01  0.761E-01
  8.220  0.153E+00  0.767E-01  0.767E-01
  8.230  0.154E+00  0.771E-01  0.771E-01
  8.240  0.154E+00  0.771E-01  0.771E-01
  8.250  0.154E+00  0.769E-01  0.769E-01
  8.260  0.153E+00  0.765E-01  0.765E-01
  8.270  0.152E+00  0.760E-01  0.760E-01
  8.280  0.150E+00  0.752E-01  0.752E-01
  8.290  0.149E+00  0.744E-01  0.744E-01
  8.300  0.147E+00  0.735E-01  0.735E-01
  8.310  0.145E+00  0.726E-01  0.726E-01
  8.320  0.143E+00  0.716E-01  0.716E-01
  8.330  0.141E+00  0.707E-01  0.707E-01
  8.340  0.140E+00  0.699E-01  0.699E-01
  8.350  0.138E+00  0.691E-01  0.691E-01
  8.360  0.137E+00  0.685E-01  0.685E-01
  8.370  0.136E+00  0.680E-01  0.680E-01
  8.380  0.136E+00  0.678E-01  0.678E-01
  8.390  0.135E+00  0.677E-01  0.677E-01
  8.400  0.136E+00  0.680E-01  0.680E-01
  8.410  0.137E+00  0.686E-01  0.686E-01
  8.420  0.139E+00  0.695E-01  0.695E-01
  8.430  0.142E+00  0.708E-01  0.708E-01
  8.440  0.145E+00  0.726E-01  0.726E-01
  8.450  0.150E+00  0.749E-01  0.749E-01
  8.460  0.155E+00  0.777E-01  0.777E-01
  8.470  0.162E+00  0.812E-01  0.812E-01
  8.480  0.171E+00  0.853E-01  0.853E-01
  8.490  0.180E+00  0.901E-01  0.901E-01
  8.500  0.191E+00  0.957E-01  0.957E-01
  8.510  0.204E+00  0.102E+00  0.102E+00
  8.520  0.218E+00  0.109E+00  0.109E+00
  8.530  0.234E+00  0.117E+00  0.117E+00
  8.540  0.251E+00  0.126E+00  0.126E+00
  8.550  0.270E+00  0.135E+00  0.135E+00
  8.560  0.289E+00  0.145E+00  0.145E+00
  8.570  0.310E+00  0.155E+00  0.155E+00
  8.580  0.331E+00  0.165E+00  0.165E+00
  8.590  0.352E+00  0.176E+00  0.176E+00
  8.600  0.372E+00  0.186E+00  0.186E+00
  8.610  0.392E+00  0.196E+00  0.196E+00
  8.620  0.411E+00  0.205E+00  0.205E+00
  8.630  0.427E+00  0.214E+00  0.214E+00
  8.640  0.442E+00  0.221E+00  0.221E+00
  8.650  0.453E+00  0.227E+00  0.227E+00
  8.660  0.462E+00  0.231E+00  0.231E+00
  8.670  0.467E+00  0.234E+00  0.234E+00
  8.680  0.469E+00  0.234E+00  0.234E+00
  8.690  0.467E+00  0.234E+00  0.234E+00
  8.700  0.462E+00  0.231E+00  0.231E+00
  8.710  0.453E+00  0.227E+00  0.227E+00
  8.720  0.441E+00  0.221E+00  0.221E+00
  8.730  0.427E+00  0.213E+00  0.213E+00
  8.740  0.410E+00  0.205E+00  0.205E+00
  8.750  0.391E+00  0.196E+00  0.196E+00
  8.760  0.371E+00  0.186E+00  0.186E+00
  8.770  0.350E+00  0.175E+00  0.175E+00
  8.780  0.329E+00  0.164E+00  0.164E+00
  8.790  0.307E+00  0.154E+00  0.154E+00
  8.800  0.286E+00  0.143E+00  0.143E+00
  8.810  0.265E+00  0.132E+00  0.132E+00
  8.820  0.244E+00  0.122E+00  0.122E+00
  8.830  0.224E+00  0.112E+00  0.112E+00
  8.840  0.206E+00  0.103E+00  0.103E+00
  8.850  0.188E+00  0.938E-01  0.938E-01
  8.860  0.171E+00  0.853E-01  0.853E-01
  8.870  0.154E+00  0.772E-01  0.772E-01
  8.880  0.139E+00  0.696E-01  0.696E-01
  8.890  0.125E+00  0.624E-01  0.624E-01
  8.900  0.111E+00  0.556E-01  0.556E-01
  8.910  0.984E-01  0.492E-01  0.492E-01
  8.920  0.866E-01  0.433E-01  0.433E-01
  8.930  0.756E-01  0.378E-01  0.378E-01
  8.940  0.655E-01  0.328E-01  0.328E-01
  8.950  0.564E-01  0.282E-01  0.282E-01
  8.960  0.482E-01  0.241E-01  0.241E-01
  8.970  0.409E-01  0.205E-01  0.205E-01
  8.980  0.346E-01  0.173E-01  0.173E-01
  8.990  0.293E-01  0.146E-01  0.146E-01
  9.000  0.248E-01  0.124E-01  0.124E-01
  9.010  0.211E-01  0.106E-01  0.106E-01
  9.020  0.182E-01  0.910E-02  0.910E-02
  9.030  0.160E-01  0.798E-02  0.798E-02
  9.040  0.143E-01  0.715E-02  0.715E-02
  9.050  0.131E-01  0.657E-02  0.657E-02
  9.060  0.123E-01  0.617E-02  0.617E-02
  9.070  0.118E-01  0.592E-02  0.592E-02
  9.080  0.115E-01  0.577E-02  0.577E-02
  9.090  0.114E-01  0.568E-02  0.568E-02
  9.100  0.112E-01  0.562E-02  0.562E-02
  9.110  0.111E-01  0.555E-02  0.555E-02
  9.120  0.109E-01  0.544E-02  0.544E-02
  9.130  0.106E-01  0.529E-02  0.529E-02
  9.140  0.102E-01  0.508E-02  0.508E-02
  9.150  0.960E-02  0.480E-02  0.480E-02
  9.160  0.891E-02  0.446E-02  0.446E-02
  9.170  0.809E-02  0.405E-02  0.405E-02
  9.180  0.717E-02  0.358E-02  0.358E-02
  9.190  0.615E-02  0.308E-02  0.308E-02
  9.200  0.508E-02  0.254E-02  0.254E-02
  9.210  0.398E-02  0.199E-02  0.199E-02
  9.220  0.289E-02  0.144E-02  0.144E-02
  9.230  0.183E-02  0.915E-03  0.915E-03
  9.240  0.837E-03  0.418E-03  0.418E-03
  9.250 -0.695E-04 -0.348E-04 -0.348E-04
  9.260 -0.869E-03 -0.434E-03 -0.434E-03
  9.270 -0.155E-02 -0.774E-03 -0.774E-03
  9.280 -0.210E-02 -0.105E-02 -0.105E-02
  9.290 -0.252E-02 -0.126E-02 -0.126E-02
  9.300 -0.281E-02 -0.141E-02 -0.141E-02
  9.310 -0.299E-02 -0.149E-02 -0.149E-02
  9.320 -0.306E-02 -0.153E-02 -0.153E-02
  9.330 -0.303E-02 -0.152E-02 -0.152E-02
  9.340 -0.293E-02 -0.147E-02 -0.147E-02
  9.350 -0.277E-02 -0.139E-02 -0.139E-02
  9.360 -0.256E-02 -0.128E-02 -0.128E-02
  9.370 -0.233E-02 -0.117E-02 -0.117E-02
  9.380 -0.208E-02 -0.104E-02 -0.104E-02
  9.390 -0.183E-02 -0.913E-03 -0.913E-03
  9.400 -0.157E-02 -0.787E-03 -0.787E-03
  9.410 -0.134E-02 -0.668E-03 -0.668E-03
  9.420 -0.111E-02 -0.556E-03 -0.556E-03
  9.430 -0.908E-03 -0.454E-03 -0.454E-03
  9.440 -0.723E-03 -0.362E-03 -0.362E-03
  9.450 -0.557E-03 -0.279E-03 -0.279E-03
  9.460 -0.407E-03 -0.204E-03 -0.204E-03
  9.470 -0.272E-03 -0.136E-03 -0.136E-03
  9.480 -0.146E-03 -0.728E-04 -0.728E-04
  9.490 -0.250E-04 -0.125E-04 -0.125E-04
  9.500  0.950E-04  0.475E-04  0.475E-04
  9.510  0.220E-03  0.110E-03  0.110E-03
  9.520  0.355E-03  0.178E-03  0.178E-03
  9.530  0.507E-03  0.254E-03  0.254E-03
  9.540  0.683E-03  0.342E-03  0.342E-03
  9.550  0.890E-03  0.445E-03  0.445E-03
  9.560  0.114E-02  0.568E-03  0.568E-03
  9.570  0.143E-02  0.714E-03  0.714E-03
  9.580  0.178E-02  0.890E-03  0.890E-03
  9.590  0.220E-02  0.110E-02  0.110E-02
  9.600  0.270E-02  0.135E-02  0.135E-02
  9.610  0.329E-02  0.164E-02  0.164E-02
  9.620  0.398E-02  0.199E-02  0.199E-02
  9.630  0.480E-02  0.240E-02  0.240E-02
  9.640  0.575E-02  0.288E-02  0.288E-02
  9.650  0.686E-02  0.343E-02  0.343E-02
  9.660  0.813E-02  0.406E-02  0.406E-02
  9.670  0.957E-02  0.479E-02  0.479E-02
  9.680  0.112E-01  0.561E-02  0.561E-02
  9.690  0.131E-01  0.653E-02  0.653E-02
  9.700  0.151E-01  0.755E-02  0.755E-02
  9.710  0.174E-01  0.868E-02  0.868E-02
  9.720  0.198E-01  0.991E-02  0.991E-02
  9.730  0.225E-01  0.112E-01  0.112E-01
  9.740  0.253E-01  0.127E-01  0.127E-01
  9.750  0.283E-01  0.142E-01  0.142E-01
  9.760  0.314E-01  0.157E-01  0.157E-01
  9.770  0.346E-01  0.173E-01  0.173E-01
  9.780  0.378E-01  0.189E-01  0.189E-01
  9.790  0.411E-01  0.205E-01  0.205E-01
  9.800  0.442E-01  0.221E-01  0.221E-01
  9.810  0.473E-01  0.236E-01  0.236E-01
  9.820  0.501E-01  0.251E-01  0.251E-01
  9.830  0.528E-01  0.264E-01  0.264E-01
  9.840  0.551E-01  0.276E-01  0.276E-01
  9.850  0.572E-01  0.286E-01  0.286E-01
  9.860  0.589E-01  0.295E-01  0.295E-01
  9.870  0.603E-01  0.301E-01  0.301E-01
  9.880  0.613E-01  0.307E-01  0.307E-01
  9.890  0.620E-01  0.310E-01  0.310E-01
  9.900  0.623E-01  0.312E-01  0.312E-01
  9.910  0.623E-01  0.312E-01  0.312E-01
  9.920  0.621E-01  0.311E-01  0.311E-01
  9.930  0.617E-01  0.308E-01  0.308E-01
  9.940  0.611E-01  0.305E-01  0.305E-01
  9.950  0.603E-01  0.302E-01  0.302E-01
  9.960  0.595E-01  0.298E-01  0.298E-01
  9.970  0.587E-01  0.294E-01  0.294E-01
  9.980  0.579E-01  0.290E-01  0.290E-01
  9.990  0.572E-01  0.286E-01  0.286E-01
 10.000  0.565E-01  0.283E-01  0.283E-01
 10.010  0.560E-01  0.280E-01  0.280E-01
 10.020  0.556E-01  0.278E-01  0.278E-01
 10.030  0.553E-01  0.276E-01  0.276E-01
 10.040  0.551E-01  0.276E-01  0.276E-01
 10.050  0.551E-01  0.275E-01  0.275E-01
 10.060  0.551E-01  0.276E-01  0.276E-01
 10.070  0.553E-01  0.276E-01  0.276E-01
 10.080  0.555E-01  0.278E-01  0.278E-01
 10.090  0.558E-01  0.279E-01  0.279E-01
 10.100  0.561E-01  0.281E-01  0.281E-01
 10.110  0.565E-01  0.282E-01  0.282E-01
 10.120  0.568E-01  0.284E-01  0.284E-01
 10.130  0.572E-01  0.286E-01  0.286E-01
 10.140  0.576E-01  0.288E-01  0.288E-01
 10.150  0.581E-01  0.290E-01  0.290E-01
 10.160  0.585E-01  0.293E-01  0.293E-01
 10.170  0.590E-01  0.295E-01  0.295E-01
 10.180  0.595E-01  0.298E-01  0.298E-01
 10.190  0.601E-01  0.301E-01  0.301E-01
 10.200  0.608E-01  0.304E-01  0.304E-01
 10.210  0.615E-01  0.307E-01  0.307E-01
 10.220  0.623E-01  0.311E-01  0.311E-01
 10.230  0.632E-01  0.316E-01  0.316E-01
 10.240  0.642E-01  0.321E-01  0.321E-01
 10.250  0.652E-01  0.326E-01  0.326E-01
 10.260  0.664E-01  0.332E-01  0.332E-01
 10.270  0.676E-01  0.338E-01  0.338E-01
 10.280  0.689E-01  0.345E-01  0.345E-01
 10.290  0.702E-01  0.351E-01  0.351E-01
 10.300  0.716E-01  0.358E-01  0.358E-01
 10.310  0.729E-01  0.364E-01  0.364E-01
 10.320  0.742E-01  0.371E-01  0.371E-01
 10.330  0.753E-01  0.377E-01  0.377E-01
 10.340  0.763E-01  0.382E-01  0.382E-01
 10.350  0.772E-01  0.386E-01  0.386E-01
 10.360  0.778E-01  0.389E-01  0.389E-01
 10.370  0.781E-01  0.390E-01  0.390E-01
 10.380  0.781E-01  0.391E-01  0.391E-01
 10.390  0.779E-01  0.389E-01  0.389E-01
 10.400  0.772E-01  0.386E-01  0.386E-01
 10.410  0.763E-01  0.381E-01  0.381E-01
 10.420  0.750E-01  0.375E-01  0.375E-01
 10.430  0.734E-01  0.367E-01  0.367E-01
 10.440  0.715E-01  0.358E-01  0.358E-01
 10.450  0.694E-01  0.347E-01  0.347E-01
 10.460  0.671E-01  0.335E-01  0.335E-01
 10.470  0.646E-01  0.323E-01  0.323E-01
 10.480  0.621E-01  0.310E-01  0.310E-01
 10.490  0.595E-01  0.298E-01  0.298E-01
 10.500  0.570E-01  0.285E-01  0.285E-01
 10.510  0.546E-01  0.273E-01  0.273E-01
 10.520  0.523E-01  0.262E-01  0.262E-01
 10.530  0.502E-01  0.251E-01  0.251E-01
 10.540  0.483E-01  0.242E-01  0.242E-01
 10.550  0.467E-01  0.234E-01  0.234E-01
 10.560  0.453E-01  0.227E-01  0.227E-01
 10.570  0.442E-01  0.221E-01  0.221E-01
 10.580  0.433E-01  0.217E-01  0.217E-01
 10.590  0.427E-01  0.213E-01  0.213E-01
 10.600  0.422E-01  0.211E-01  0.211E-01
 10.610  0.420E-01  0.210E-01  0.210E-01
 10.620  0.419E-01  0.209E-01  0.209E-01
 10.630  0.419E-01  0.210E-01  0.210E-01
 10.640  0.421E-01  0.210E-01  0.210E-01
 10.650  0.423E-01  0.211E-01  0.211E-01
 10.660  0.426E-01  0.213E-01  0.213E-01
 10.670  0.429E-01  0.214E-01  0.214E-01
 10.680  0.432E-01  0.216E-01  0.216E-01
 10.690  0.436E-01  0.218E-01  0.218E-01
 10.700  0.439E-01  0.220E-01  0.220E-01
 10.710  0.443E-01  0.221E-01  0.221E-01
 10.720  0.446E-01  0.223E-01  0.223E-01
 10.730  0.449E-01  0.224E-01  0.224E-01
 10.740  0.451E-01  0.226E-01  0.226E-01
 10.750  0.454E-01  0.227E-01  0.227E-01
 10.760  0.456E-01  0.228E-01  0.228E-01
 10.770  0.458E-01  0.229E-01  0.229E-01
 10.780  0.460E-01  0.230E-01  0.230E-01
 10.790  0.462E-01  0.231E-01  0.231E-01
 10.800  0.464E-01  0.232E-01  0.232E-01
 10.810  0.466E-01  0.233E-01  0.233E-01
 10.820  0.467E-01  0.234E-01  0.234E-01
 10.830  0.469E-01  0.234E-01  0.234E-01
 10.840  0.470E-01  0.235E-01  0.235E-01
 10.850  0.472E-01  0.236E-01  0.236E-01
 10.860  0.473E-01  0.236E-01  0.236E-01
 10.870  0.474E-01  0.237E-01  0.237E-01
 10.880  0.476E-01  0.238E-01  0.238E-01
 10.890  0.477E-01  0.238E-01  0.238E-01
 10.900  0.478E-01  0.239E-01  0.239E-01
 10.910  0.479E-01  0.240E-01  0.240E-01
 10.920  0.481E-01  0.240E-01  0.240E-01
 10.930  0.482E-01  0.241E-01  0.241E-01
 10.940  0.483E-01  0.242E-01  0.242E-01
 10.950  0.484E-01  0.242E-01  0.242E-01
 10.960  0.486E-01  0.243E-01  0.243E-01
 10.970  0.487E-01  0.244E-01  0.244E-01
 10.980  0.489E-01  0.244E-01  0.244E-01
 10.990  0.490E-01  0.245E-01  0.245E-01
 11.000  0.491E-01  0.246E-01  0.246E-01
 11.010  0.493E-01  0.246E-01  0.246E-01
 11.020  0.494E-01  0.247E-01  0.247E-01
 11.030  0.495E-01  0.248E-01  0.248E-01
 11.040  0.496E-01  0.248E-01  0.248E-01
 11.050  0.498E-01  0.249E-01  0.249E-01
 11.060  0.499E-01  0.249E-01  0.249E-01
 11.070  0.500E-01  0.250E-01  0.250E-01
 11.080  0.502E-01  0.251E-01  0.251E-01
 11.090  0.503E-01  0.251E-01  0.251E-01
 11.100  0.504E-01  0.252E-01  0.252E-01
 11.110  0.506E-01  0.253E-01  0.253E-01
 11.120  0.507E-01  0.254E-01  0.254E-01
 11.130  0.509E-01  0.254E-01  0.254E-01
 11.140  0.510E-01  0.255E-01  0.255E-01
 11.150  0.512E-01  0.256E-01  0.256E-01
 11.160  0.513E-01  0.256E-01  0.256E-01
 11.170  0.514E-01  0.257E-01  0.257E-01
 11.180  0.516E-01  0.258E-01  0.258E-01
 11.190  0.517E-01  0.259E-01  0.259E-01
 11.200  0.518E-01  0.259E-01  0.259E-01
 11.210  0.520E-01  0.260E-01  0.260E-01
 11.220  0.521E-01  0.261E-01  0.261E-01
 11.230  0.523E-01  0.261E-01  0.261E-01
 11.240  0.524E-01  0.262E-01  0.262E-01
 11.250  0.526E-01  0.263E-01  0.263E-01
 11.260  0.527E-01  0.264E-01  0.264E-01
 11.270  0.529E-01  0.264E-01  0.264E-01
 11.280  0.530E-01  0.265E-01  0.265E-01
 11.290  0.532E-01  0.266E-01  0.266E-01
 11.300  0.533E-01  0.267E-01  0.267E-01
 11.310  0.535E-01  0.267E-01  0.267E-01
 11.320  0.536E-01  0.268E-01  0.268E-01
 11.330  0.538E-01  0.269E-01  0.269E-01
 11.340  0.539E-01  0.270E-01  0.270E-01
 11.350  0.541E-01  0.270E-01  0.270E-01
 11.360  0.542E-01  0.271E-01  0.271E-01
 11.370  0.544E-01  0.272E-01  0.272E-01
 11.380  0.545E-01  0.273E-01  0.273E-01
 11.390  0.547E-01  0.273E-01  0.273E-01
 11.400  0.549E-01  0.274E-01  0.274E-01
 11.410  0.550E-01  0.275E-01  0.275E-01
 11.420  0.552E-01  0.276E-01  0.276E-01
 11.430  0.554E-01  0.277E-01  0.277E-01
 11.440  0.555E-01  0.278E-01  0.278E-01
 11.450  0.557E-01  0.279E-01  0.279E-01
 11.460  0.559E-01  0.279E-01  0.279E-01
 11.470  0.561E-01  0.280E-01  0.280E-01
 11.480  0.562E-01  0.281E-01  0.281E-01
 11.490  0.564E-01  0.282E-01  0.282E-01
 11.500  0.566E-01  0.283E-01  0.283E-01
 11.510  0.567E-01  0.284E-01  0.284E-01
 11.520  0.569E-01  0.285E-01  0.285E-01
 11.530  0.571E-01  0.286E-01  0.286E-01
 11.540  0.573E-01  0.287E-01  0.287E-01
 11.550  0.576E-01  0.288E-01  0.288E-01
 11.560  0.578E-01  0.289E-01  0.289E-01
 11.570  0.581E-01  0.290E-01  0.290E-01
 11.580  0.583E-01  0.292E-01  0.292E-01
 11.590  0.587E-01  0.293E-01  0.293E-01
 11.600  0.590E-01  0.295E-01  0.295E-01
 11.610  0.594E-01  0.297E-01  0.297E-01
 11.620  0.598E-01  0.299E-01  0.299E-01
 11.630  0.604E-01  0.302E-01  0.302E-01
 11.640  0.610E-01  0.305E-01  0.305E-01
 11.650  0.616E-01  0.308E-01  0.308E-01
 11.660  0.625E-01  0.312E-01  0.312E-01
 11.670  0.634E-01  0.317E-01  0.317E-01
 11.680  0.646E-01  0.323E-01  0.323E-01
 11.690  0.659E-01  0.329E-01  0.329E-01
 11.700  0.675E-01  0.337E-01  0.337E-01
 11.710  0.693E-01  0.346E-01  0.346E-01
 11.720  0.713E-01  0.357E-01  0.357E-01
 11.730  0.737E-01  0.369E-01  0.369E-01
 11.740  0.764E-01  0.382E-01  0.382E-01
 11.750  0.794E-01  0.397E-01  0.397E-01
 11.760  0.828E-01  0.414E-01  0.414E-01
 11.770  0.865E-01  0.433E-01  0.433E-01
 11.780  0.906E-01  0.453E-01  0.453E-01
 11.790  0.950E-01  0.475E-01  0.475E-01
 11.800  0.996E-01  0.498E-01  0.498E-01
 11.810  0.105E+00  0.523E-01  0.523E-01
 11.820  0.110E+00  0.549E-01  0.549E-01
 11.830  0.115E+00  0.575E-01  0.575E-01
 11.840  0.120E+00  0.602E-01  0.602E-01
 11.850  0.126E+00  0.629E-01  0.629E-01
 11.860  0.131E+00  0.656E-01  0.656E-01
 11.870  0.136E+00  0.681E-01  0.681E-01
 11.880  0.141E+00  0.705E-01  0.705E-01
 11.890  0.145E+00  0.727E-01  0.727E-01
 11.900  0.149E+00  0.747E-01  0.747E-01
 11.910  0.153E+00  0.764E-01  0.764E-01
 11.920  0.156E+00  0.778E-01  0.778E-01
 11.930  0.158E+00  0.789E-01  0.789E-01
 11.940  0.159E+00  0.796E-01  0.796E-01
 11.950  0.160E+00  0.800E-01  0.800E-01
 11.960  0.160E+00  0.801E-01  0.801E-01
 11.970  0.160E+00  0.798E-01  0.798E-01
 11.980  0.158E+00  0.792E-01  0.792E-01
 11.990  0.157E+00  0.783E-01  0.783E-01
 12.000  0.154E+00  0.772E-01  0.772E-01
 12.010  0.152E+00  0.758E-01  0.758E-01
 12.020  0.149E+00  0.743E-01  0.743E-01
 12.030  0.145E+00  0.727E-01  0.727E-01
 12.040  0.142E+00  0.710E-01  0.710E-01
 12.050  0.139E+00  0.693E-01  0.693E-01
 12.060  0.135E+00  0.676E-01  0.676E-01
 12.070  0.132E+00  0.659E-01  0.659E-01
 12.080  0.129E+00  0.644E-01  0.644E-01
 12.090  0.126E+00  0.630E-01  0.630E-01
 12.100  0.123E+00  0.617E-01  0.617E-01
 12.110  0.121E+00  0.607E-01  0.607E-01
 12.120  0.120E+00  0.598E-01  0.598E-01
 12.130  0.118E+00  0.592E-01  0.592E-01
 12.140  0.118E+00  0.588E-01  0.588E-01
 12.150  0.117E+00  0.587E-01  0.587E-01
 12.160  0.118E+00  0.588E-01  0.588E-01
 12.170  0.118E+00  0.591E-01  0.591E-01
 12.180  0.119E+00  0.597E-01  0.597E-01
 12.190  0.121E+00  0.605E-01  0.605E-01
 12.200  0.123E+00  0.615E-01  0.615E-01
 12.210  0.125E+00  0.627E-01  0.627E-01
 12.220  0.128E+00  0.641E-01  0.641E-01
 12.230  0.131E+00  0.656E-01  0.656E-01
 12.240  0.134E+00  0.672E-01  0.672E-01
 12.250  0.138E+00  0.690E-01  0.690E-01
 12.260  0.142E+00  0.708E-01  0.708E-01
 12.270  0.145E+00  0.726E-01  0.726E-01
 12.280  0.149E+00  0.744E-01  0.744E-01
 12.290  0.152E+00  0.761E-01  0.761E-01
 12.300  0.155E+00  0.777E-01  0.777E-01
 12.310  0.158E+00  0.791E-01  0.791E-01
 12.320  0.161E+00  0.803E-01  0.803E-01
 12.330  0.162E+00  0.812E-01  0.812E-01
 12.340  0.164E+00  0.818E-01  0.818E-01
 12.350  0.164E+00  0.819E-01  0.819E-01
 12.360  0.163E+00  0.816E-01  0.816E-01
 12.370  0.162E+00  0.808E-01  0.808E-01
 12.380  0.159E+00  0.795E-01  0.795E-01
 12.390  0.155E+00  0.776E-01  0.776E-01
 12.400  0.151E+00  0.753E-01  0.753E-01
 12.410  0.145E+00  0.724E-01  0.724E-01
 12.420  0.138E+00  0.691E-01  0.691E-01
 12.430  0.131E+00  0.653E-01  0.653E-01
 12.440  0.123E+00  0.613E-01  0.613E-01
 12.450  0.114E+00  0.570E-01  0.570E-01
 12.460  0.105E+00  0.526E-01  0.526E-01
 12.470  0.962E-01  0.481E-01  0.481E-01
 12.480  0.874E-01  0.437E-01  0.437E-01
 12.490  0.788E-01  0.394E-01  0.394E-01
 12.500  0.708E-01  0.354E-01  0.354E-01
 12.510  0.634E-01  0.317E-01  0.317E-01
 12.520  0.567E-01  0.284E-01  0.284E-01
 12.530  0.509E-01  0.255E-01  0.255E-01
 12.540  0.460E-01  0.230E-01  0.230E-01
 12.550  0.420E-01  0.210E-01  0.210E-01
 12.560  0.389E-01  0.195E-01  0.195E-01
 12.570  0.367E-01  0.183E-01  0.183E-01
 12.580  0.352E-01  0.176E-01  0.176E-01
 12.590  0.344E-01  0.172E-01  0.172E-01
 12.600  0.342E-01  0.171E-01  0.171E-01
 12.610  0.346E-01  0.173E-01  0.173E-01
 12.620  0.353E-01  0.176E-01  0.176E-01
 12.630  0.363E-01  0.182E-01  0.182E-01
 12.640  0.376E-01  0.188E-01  0.188E-01
 12.650  0.390E-01  0.195E-01  0.195E-01
 12.660  0.405E-01  0.203E-01  0.203E-01
 12.670  0.421E-01  0.210E-01  0.210E-01
 12.680  0.436E-01  0.218E-01  0.218E-01
 12.690  0.452E-01  0.226E-01  0.226E-01
 12.700  0.467E-01  0.233E-01  0.233E-01
 12.710  0.481E-01  0.240E-01  0.240E-01
 12.720  0.495E-01  0.247E-01  0.247E-01
 12.730  0.508E-01  0.254E-01  0.254E-01
 12.740  0.520E-01  0.260E-01  0.260E-01
 12.750  0.532E-01  0.266E-01  0.266E-01
 12.760  0.544E-01  0.272E-01  0.272E-01
 12.770  0.556E-01  0.278E-01  0.278E-01
 12.780  0.567E-01  0.283E-01  0.283E-01
 12.790  0.578E-01  0.289E-01  0.289E-01
 12.800  0.589E-01  0.294E-01  0.294E-01
 12.810  0.600E-01  0.300E-01  0.300E-01
 12.820  0.610E-01  0.305E-01  0.305E-01
 12.830  0.621E-01  0.311E-01  0.311E-01
 12.840  0.632E-01  0.316E-01  0.316E-01
 12.850  0.643E-01  0.321E-01  0.321E-01
 12.860  0.654E-01  0.327E-01  0.327E-01
 12.870  0.664E-01  0.332E-01  0.332E-01
 12.880  0.675E-01  0.338E-01  0.338E-01
 12.890  0.686E-01  0.343E-01  0.343E-01
 12.900  0.696E-01  0.348E-01  0.348E-01
 12.910  0.706E-01  0.353E-01  0.353E-01
 12.920  0.717E-01  0.358E-01  0.358E-01
 12.930  0.727E-01  0.363E-01  0.363E-01
 12.940  0.737E-01  0.368E-01  0.368E-01
 12.950  0.747E-01  0.373E-01  0.373E-01
 12.960  0.757E-01  0.378E-01  0.378E-01
 12.970  0.767E-01  0.383E-01  0.383E-01
 12.980  0.777E-01  0.388E-01  0.388E-01
 12.990  0.787E-01  0.393E-01  0.393E-01
 13.000  0.797E-01  0.398E-01  0.398E-01
 13.010  0.807E-01  0.403E-01  0.403E-01
 13.020  0.817E-01  0.409E-01  0.409E-01
 13.030  0.827E-01  0.414E-01  0.414E-01
 13.040  0.837E-01  0.419E-01  0.419E-01
 13.050  0.848E-01  0.424E-01  0.424E-01
 13.060  0.858E-01  0.429E-01  0.429E-01
 13.070  0.869E-01  0.434E-01  0.434E-01
 13.080  0.880E-01  0.440E-01  0.440E-01
 13.090  0.890E-01  0.445E-01  0.445E-01
 13.100  0.902E-01  0.451E-01  0.451E-01
 13.110  0.913E-01  0.456E-01  0.456E-01
 13.120  0.924E-01  0.462E-01  0.462E-01
 13.130  0.936E-01  0.468E-01  0.468E-01
 13.140  0.949E-01  0.474E-01  0.474E-01
 13.150  0.961E-01  0.481E-01  0.481E-01
 13.160  0.974E-01  0.487E-01  0.487E-01
 13.170  0.988E-01  0.494E-01  0.494E-01
 13.180  0.100E+00  0.501E-01  0.501E-01
 13.190  0.102E+00  0.508E-01  0.508E-01
 13.200  0.103E+00  0.515E-01  0.515E-01
 13.210  0.105E+00  0.523E-01  0.523E-01
 13.220  0.106E+00  0.531E-01  0.531E-01
 13.230  0.108E+00  0.540E-01  0.540E-01
 13.240  0.110E+00  0.549E-01  0.549E-01
 13.250  0.112E+00  0.558E-01  0.558E-01
 13.260  0.114E+00  0.568E-01  0.568E-01
 13.270  0.116E+00  0.579E-01  0.579E-01
 13.280  0.118E+00  0.590E-01  0.590E-01
 13.290  0.120E+00  0.602E-01  0.602E-01
 13.300  0.123E+00  0.615E-01  0.615E-01
 13.310  0.126E+00  0.629E-01  0.629E-01
 13.320  0.129E+00  0.644E-01  0.644E-01
 13.330  0.132E+00  0.661E-01  0.661E-01
 13.340  0.136E+00  0.679E-01  0.679E-01
 13.350  0.140E+00  0.698E-01  0.698E-01
 13.360  0.144E+00  0.720E-01  0.720E-01
 13.370  0.148E+00  0.742E-01  0.742E-01
 13.380  0.153E+00  0.767E-01  0.767E-01
 13.390  0.159E+00  0.794E-01  0.794E-01
 13.400  0.164E+00  0.822E-01  0.822E-01
 13.410  0.170E+00  0.852E-01  0.852E-01
 13.420  0.177E+00  0.883E-01  0.883E-01
 13.430  0.183E+00  0.915E-01  0.915E-01
 13.440  0.190E+00  0.948E-01  0.948E-01
 13.450  0.196E+00  0.981E-01  0.981E-01
 13.460  0.203E+00  0.101E+00  0.101E+00
 13.470  0.209E+00  0.105E+00  0.105E+00
 13.480  0.215E+00  0.108E+00  0.108E+00
 13.490  0.221E+00  0.110E+00  0.110E+00
 13.500  0.225E+00  0.113E+00  0.113E+00
 13.510  0.229E+00  0.115E+00  0.115E+00
 13.520  0.232E+00  0.116E+00  0.116E+00
 13.530  0.234E+00  0.117E+00  0.117E+00
 13.540  0.234E+00  0.117E+00  0.117E+00
 13.550  0.233E+00  0.117E+00  0.117E+00
 13.560  0.231E+00  0.115E+00  0.115E+00
 13.570  0.227E+00  0.114E+00  0.114E+00
 13.580  0.223E+00  0.111E+00  0.111E+00
 13.590  0.217E+00  0.108E+00  0.108E+00
 13.600  0.209E+00  0.105E+00  0.105E+00
 13.610  0.201E+00  0.101E+00  0.101E+00
 13.620  0.192E+00  0.962E-01  0.962E-01
 13.630  0.183E+00  0.915E-01  0.915E-01
 13.640  0.173E+00  0.865E-01  0.865E-01
 13.650  0.163E+00  0.815E-01  0.815E-01
 13.660  0.153E+00  0.764E-01  0.764E-01
 13.670  0.143E+00  0.713E-01  0.713E-01
 13.680  0.133E+00  0.663E-01  0.663E-01
 13.690  0.123E+00  0.615E-01  0.615E-01
 13.700  0.114E+00  0.569E-01  0.569E-01
 13.710  0.105E+00  0.525E-01  0.525E-01
 13.720  0.968E-01  0.484E-01  0.484E-01
 13.730  0.890E-01  0.445E-01  0.445E-01
 13.740  0.819E-01  0.409E-01  0.409E-01
 13.750  0.753E-01  0.376E-01  0.376E-01
 13.760  0.693E-01  0.346E-01  0.346E-01
 13.770  0.639E-01  0.320E-01  0.320E-01
 13.780  0.591E-01  0.296E-01  0.296E-01
 13.790  0.549E-01  0.275E-01  0.275E-01
 13.800  0.514E-01  0.257E-01  0.257E-01
 13.810  0.484E-01  0.242E-01  0.242E-01
 13.820  0.460E-01  0.230E-01  0.230E-01
 13.830  0.442E-01  0.221E-01  0.221E-01
 13.840  0.429E-01  0.215E-01  0.215E-01
 13.850  0.422E-01  0.211E-01  0.211E-01
 13.860  0.419E-01  0.210E-01  0.210E-01
 13.870  0.421E-01  0.210E-01  0.210E-01
 13.880  0.426E-01  0.213E-01  0.213E-01
 13.890  0.434E-01  0.217E-01  0.217E-01
 13.900  0.445E-01  0.223E-01  0.223E-01
 13.910  0.459E-01  0.229E-01  0.229E-01
 13.920  0.473E-01  0.237E-01  0.237E-01
 13.930  0.489E-01  0.245E-01  0.245E-01
 13.940  0.506E-01  0.253E-01  0.253E-01
 13.950  0.523E-01  0.262E-01  0.262E-01
 13.960  0.540E-01  0.270E-01  0.270E-01
 13.970  0.558E-01  0.279E-01  0.279E-01
 13.980  0.575E-01  0.288E-01  0.288E-01
 13.990  0.593E-01  0.296E-01  0.296E-01
 14.000  0.611E-01  0.305E-01  0.305E-01
 14.010  0.629E-01  0.315E-01  0.315E-01
 14.020  0.648E-01  0.324E-01  0.324E-01
 14.030  0.669E-01  0.334E-01  0.334E-01
 14.040  0.690E-01  0.345E-01  0.345E-01
 14.050  0.714E-01  0.357E-01  0.357E-01
 14.060  0.741E-01  0.370E-01  0.370E-01
 14.070  0.770E-01  0.385E-01  0.385E-01
 14.080  0.802E-01  0.401E-01  0.401E-01
 14.090  0.838E-01  0.419E-01  0.419E-01
 14.100  0.877E-01  0.439E-01  0.439E-01
 14.110  0.921E-01  0.461E-01  0.461E-01
 14.120  0.969E-01  0.485E-01  0.485E-01
 14.130  0.102E+00  0.510E-01  0.510E-01
 14.140  0.108E+00  0.538E-01  0.538E-01
 14.150  0.113E+00  0.567E-01  0.567E-01
 14.160  0.120E+00  0.598E-01  0.598E-01
 14.170  0.126E+00  0.629E-01  0.629E-01
 14.180  0.132E+00  0.661E-01  0.661E-01
 14.190  0.139E+00  0.693E-01  0.693E-01
 14.200  0.145E+00  0.723E-01  0.723E-01
 14.210  0.150E+00  0.752E-01  0.752E-01
 14.220  0.156E+00  0.779E-01  0.779E-01
 14.230  0.161E+00  0.803E-01  0.803E-01
 14.240  0.165E+00  0.823E-01  0.823E-01
 14.250  0.168E+00  0.840E-01  0.840E-01
 14.260  0.171E+00  0.853E-01  0.853E-01
 14.270  0.172E+00  0.862E-01  0.862E-01
 14.280  0.173E+00  0.866E-01  0.866E-01
 14.290  0.173E+00  0.866E-01  0.866E-01
 14.300  0.173E+00  0.863E-01  0.863E-01
 14.310  0.171E+00  0.856E-01  0.856E-01
 14.320  0.169E+00  0.847E-01  0.847E-01
 14.330  0.167E+00  0.836E-01  0.836E-01
 14.340  0.165E+00  0.823E-01  0.823E-01
 14.350  0.162E+00  0.809E-01  0.809E-01
 14.360  0.159E+00  0.795E-01  0.795E-01
 14.370  0.156E+00  0.782E-01  0.782E-01
 14.380  0.154E+00  0.769E-01  0.769E-01
 14.390  0.152E+00  0.758E-01  0.758E-01
 14.400  0.149E+00  0.747E-01  0.747E-01
 14.410  0.148E+00  0.738E-01  0.738E-01
 14.420  0.146E+00  0.729E-01  0.729E-01
 14.430  0.144E+00  0.721E-01  0.721E-01
 14.440  0.143E+00  0.713E-01  0.713E-01
 14.450  0.141E+00  0.705E-01  0.705E-01
 14.460  0.139E+00  0.696E-01  0.696E-01
 14.470  0.137E+00  0.686E-01  0.686E-01
 14.480  0.135E+00  0.674E-01  0.674E-01
 14.490  0.132E+00  0.660E-01  0.660E-01
 14.500  0.129E+00  0.643E-01  0.643E-01
 14.510  0.125E+00  0.623E-01  0.623E-01
 14.520  0.120E+00  0.601E-01  0.601E-01
 14.530  0.115E+00  0.576E-01  0.576E-01
 14.540  0.110E+00  0.548E-01  0.548E-01
 14.550  0.104E+00  0.518E-01  0.518E-01
 14.560  0.973E-01  0.487E-01  0.487E-01
 14.570  0.907E-01  0.454E-01  0.454E-01
 14.580  0.840E-01  0.420E-01  0.420E-01
 14.590  0.772E-01  0.386E-01  0.386E-01
 14.600  0.705E-01  0.353E-01  0.353E-01
 14.610  0.641E-01  0.320E-01  0.320E-01
 14.620  0.579E-01  0.290E-01  0.290E-01
 14.630  0.521E-01  0.261E-01  0.261E-01
 14.640  0.469E-01  0.234E-01  0.234E-01
 14.650  0.421E-01  0.210E-01  0.210E-01
 14.660  0.379E-01  0.189E-01  0.189E-01
 14.670  0.342E-01  0.171E-01  0.171E-01
 14.680  0.312E-01  0.156E-01  0.156E-01
 14.690  0.286E-01  0.143E-01  0.143E-01
 14.700  0.266E-01  0.133E-01  0.133E-01
 14.710  0.250E-01  0.125E-01  0.125E-01
 14.720  0.238E-01  0.119E-01  0.119E-01
 14.730  0.230E-01  0.115E-01  0.115E-01
 14.740  0.224E-01  0.112E-01  0.112E-01
 14.750  0.220E-01  0.110E-01  0.110E-01
 14.760  0.219E-01  0.109E-01  0.109E-01
 14.770  0.218E-01  0.109E-01  0.109E-01
 14.780  0.218E-01  0.109E-01  0.109E-01
 14.790  0.219E-01  0.109E-01  0.109E-01
 14.800  0.219E-01  0.110E-01  0.110E-01
 14.810  0.220E-01  0.110E-01  0.110E-01
 14.820  0.220E-01  0.110E-01  0.110E-01
 14.830  0.221E-01  0.110E-01  0.110E-01
 14.840  0.221E-01  0.110E-01  0.110E-01
 14.850  0.220E-01  0.110E-01  0.110E-01
 14.860  0.220E-01  0.110E-01  0.110E-01
 14.870  0.219E-01  0.109E-01  0.109E-01
 14.880  0.218E-01  0.109E-01  0.109E-01
 14.890  0.217E-01  0.109E-01  0.109E-01
 14.900  0.216E-01  0.108E-01  0.108E-01
 14.910  0.216E-01  0.108E-01  0.108E-01
 14.920  0.215E-01  0.107E-01  0.107E-01
 14.930  0.215E-01  0.107E-01  0.107E-01
 14.940  0.214E-01  0.107E-01  0.107E-01
 14.950  0.215E-01  0.107E-01  0.107E-01
 14.960  0.215E-01  0.108E-01  0.108E-01
 14.970  0.216E-01  0.108E-01  0.108E-01
 14.980  0.217E-01  0.108E-01  0.108E-01
 14.990  0.218E-01  0.109E-01  0.109E-01
 15.000  0.220E-01  0.110E-01  0.110E-01
 15.010  0.221E-01  0.111E-01  0.111E-01
